EXG Channel 0, EXG Channel 1, EXG Channel 2, EXG Channel 3, EXG Channel 4, EXG Channel 5, EXG Channel 6, EXG Channel 7, Other, Other, Timestamp, Other, Other, Other, Other, Other, Other, Accel Channel 0, Accel Channel 1, Accel Channel 2, Other, Other, Other, Other, Other, Other, Other, Other, Other, Other, Other, Marker Channel, Timestamp (Formatted)
0.0, 0.0, 15.47613113431376, -13.18634998554819, 64.81439013941181, 123.19091779672796, 3.3681527840792214, 1.2479964565061579, 148.22915548457763, 161.27799674908823, 21.352878222029815, 47.28209513733179, 245.6294103848864, 152.27004337425882, 62.03487740548616, 172.40438876932305, 405.82332285873076, 0.8866662062419678, 0.9072838309953905, 0.8577729534041437, 0.8017376719220496, 0.9741803442514271, 0.8841828887400298, 0.9169098245027866, 548.7594762293002, 239402.47363243613, 36.59352943860271, 1095.4995315958206, 1099.0562646242192, 89.13639144915899, 1.775996522511341E9, 0.0, 2026-04-12 20:22:02.512
0.0, 0.0, 8.055646125320719, -1.849582637146625, 84.86338557488256, 79.84858424442967, -40.71424776772835, 73.45597529993911, 159.04775917857125, 29.78619695455297, 11.67849675917023, 233.18595158200557, 172.7003530816179, -29.31006824050081, 174.51844370312875, 315.14631175691386, 55.22975571671431, 0.9660396863759234, 0.9287947999155671, 0.9043569659814182, 0.8958650636913764, 0.879404881006197, 0.872060936460957, 1.028916468339982, 457.17187718207896, 268308.0993042558, 36.601218499899254, 965.6586611230975, 994.8814277550526, 97.9524406106517, 1.7759965225153072E9, 0.0, 2026-04-12 20:22:02.545
0.0, 0.0, 2.304799358284537, 10.853814178730833, 93.89938077640613, 36.95097641877077, 5.113394050570051, 176.3322826608742, 109.99720199291285, 2.9740197677855633, 135.60593020594385, 247.26371374116786, 46.24363195497956, 124.354127390636, 357.1130584342596, 3.0099921394858313, 77.92837661115438, 0.9560609353042612, 0.9914373961373416, 0.8936399799001882, 0.8938811609206241, 0.9490274348638085, 0.979597718586073, 0.9361797330195755, 451.36581967739517, 228581.17213945475, 36.593060346204346, 1086.330485413466, 952.7208501691647, 91.52955420579832, 1.7759965225193317E9, 0.0, 2026-04-12 20:22:02.545
0.0, 0.0, -3.044098999210078, 23.108452207311796, 99.61421062146403, -14.083341196858882, 40.47025024421689, 144.9005707438606, 1.8960259240920436, 107.77171357388606, 226.81755609914495, -11.10303424432341, 77.0821620136233, 249.00768768626813, 44.57689562368709, 0.43056614435172946, 255.23084983125392, 0.8916182963148306, 0.875257305294815, 0.9804491249732029, 0.9389470295237342, 0.8733200965923897, 0.8377696931080482, 1.0389079905159673, 536.8886848366867, 261534.27048969033, 36.590467331942925, 1041.3060213351955, 1029.0605331344907, 81.14136406074508, 1.7759965225229445E9, 0.0, 2026-04-12 20:22:02.545
0.0, 0.0, -7.5327423994116245, 40.81654312313663, 76.14005175975586, -24.28305161281125, 100.50424215570104, 118.13794821858701, -94.09689307458396, 389.74962277971713, 123.3210304393817, -53.470653069463765, 202.28559155538568, 102.57463224994783, 31.662688366503275, 283.8933733033979, 11.746507364449002, 0.942864647346379, 0.941464182197863, 0.8554619387669031, 0.8186902554081551, 0.8607706468985218, 0.9544233146402031, 1.0218191719405438, 521.6157437767981, 254028.11237038448, 36.59462306004635, 1008.1408484783119, 1000.488212597666, 83.81380678449662, 1.775996522526935E9, 0.0, 2026-04-12 20:22:02.545
0.0, 0.0, -8.478415904537549, 56.910958710799626, 53.60775196950448, -8.634397742020042, 158.5678768741251, 20.73250199799169, 73.26468934185073, 407.5059245643363, -55.20752868368842, 163.78409685138925, 211.70789083453252, 35.82060149756818, 341.1723694734368, 145.29256674143542, 20.804559915535975, 0.8841833091566602, 0.8027829880089564, 0.8903029554155941, 0.8733079581366868, 0.8689919936127021, 0.8903458922986179, 0.9108721791939322, 535.504283496022, 270340.8121721509, 36.59177376650345, 1036.1477986234986, 1031.0013616382412, 82.83567092678827, 1.7759965225309372E9, 0.0, 2026-04-12 20:22:02.545
0.0, 0.0, -7.396564334559045, 69.74693265117244, 25.98732606485676, 25.476452855662398, 121.3652347207805, -24.993437179881738, 236.9454645575545, 106.0905053712521, -20.325098853564327, 282.21119805118343, 62.55871040840278, 155.7315476930708, 252.61300094302533, -159.90254694527732, 421.12936114518294, 0.8015967394447402, 0.8781253077435767, 0.9515943526676599, 0.9728376997335423, 0.8151457323415819, 0.8229212067623332, 1.091492696159009, 504.09590374022696, 272970.03478421934, 36.60165180502218, 997.7530811519649, 980.7920455234241, 92.33373173279851, 1.775996522534875E9, 0.0, 2026-04-12 20:22:02.545
0.0, 0.0, -4.268119623778706, 75.45655970061976, 4.06525213318961, 61.547901111056035, 83.38804539775958, -33.35622105891497, 202.85865887910415, -48.921978699467445, 174.84942495540906, 238.42024530392283, -21.284431378022077, 403.3494945296041, -111.95980519325866, 362.6903854967892, 123.85714167670301, 0.9868891813012358, 0.8119173528312861, 0.8164345428173619, 0.9040435199876634, 0.9064980100094436, 0.9914127612885238, 1.0445289532051198, 459.9213656326808, 278819.88220663904, 36.59912257275482, 958.2111616203781, 953.3362833622716, 97.79287908808404, 1.7759965225388803E9, 0.0, 2026-04-12 20:22:02.545
0.0, 0.0, -5.003260559410855, 76.15658065883254, -5.215186481308123, 102.95928576648475, 29.310438715823476, 62.57515515649429, 142.40124859342575, -46.84244803739887, 271.58669223569984, -91.91799828472892, 439.0528670575221, 82.8197589164599, 222.75291371446443, 296.64426372618937, -50.44579945279324, 0.9867413456744855, 0.878015700293033, 0.9996276571572441, 0.863281082131957, 0.9853264857236349, 0.9336496284669816, 0.9036231140305215, 450.2299307913153, 241882.44832114576, 36.59959429216653, 1082.3564238132922, 903.7098293317146, 87.44363321659308, 1.775996522542906E9, 0.0, 2026-04-12 20:22:02.545
0.0, 0.0, 2.4902203108963654, 68.56362143755459, -18.468533576009676, 135.97399811379515, -39.61332872059636, 148.14700027680396, 41.13222467164223, 105.20068348319758, 113.17830110580618, 40.74366440877375, 575.238894290667, -14.758507920819312, 713.7235570934738, -49.153474704118366, 200.9001572137451, 0.8882582503946399, 0.9481523707575569, 0.9310336995310885, 0.9819834667212234, 0.943561425023597, 0.8852133222509195, 0.9611343944008255, 451.24363187668297, 243418.06470946837, 36.59040463284665, 973.3867498451779, 1062.64140851404, 92.53711574313802, 1.775996522546744E9, 0.0, 2026-04-12 20:22:02.577
0.0, 0.0, 6.958568182966889, 58.92738869323276, -7.471619290407666, 100.5362724565496, -29.286523123580963, 195.8119936814913, -40.2482367353318, 238.62127396030922, -29.031076393513302, 168.8243670847999, 4.020308827285618, 233.11470324934146, 128.19384185828093, 173.16517670438395, 181.36941092556796, 0.8552068173063013, 0.8842509871340364, 0.933310336843222, 0.9268559549502998, 0.8291353346298698, 0.831689638641519, 1.071271067991107, 515.460745679297, 248927.56595342967, 36.595755487529686, 991.3993924469794, 1009.6084460460082, 92.0476313514476, 1.7759965225507605E9, 0.0, 2026-04-12 20:22:02.577
0.0, 0.0, 13.92318525442596, 42.50323072993456, 16.691682928194293, 80.59765848004008, 24.413399236268475, 110.14183642051239, -6.596452225766782, 137.45542776315864, 26.81850348246401, 224.4382783782379, 51.48339732274198, 252.06272987566285, -136.61862326103181, 695.5527256559742, -106.58168510493437, 0.8665008401038136, 0.8118243361278681, 0.8448569063298308, 0.9509782916897215, 0.9170289350903228, 0.9296636492078872, 0.988894646910995, 498.20027694013976, 235498.6342430582, 36.60301506126981, 1093.8087639058335, 915.2486192216934, 82.77460281220759, 1.7759965225547407E9, 0.0, 2026-04-12 20:22:02.577
0.0, 0.0, 21.462226213491313, 25.33073096179983, 48.23061478863945, 34.292227507601666, 84.71092578696563, 48.95278051811134, 106.59626480835331, 22.6238330282213, 342.04721166743536, 23.010216253166192, 176.25909825596733, 63.92367570244467, 278.8884162155987, -65.48327512765502, 498.98745499351435, 0.8230379271741619, 0.9791918005320815, 0.9037322718572255, 0.996638734449362, 0.8219620169475769, 0.8464800917007973, 0.9102815169148704, 544.8507346669131, 253421.82019957292, 36.597070793738666, 920.4431608759741, 907.158818384553, 94.56703048694021, 1.7759965225588915E9, 0.0, 2026-04-12 20:22:02.577
0.0, 0.0, 28.853803343083868, 11.018059154783511, 79.753930997466, 1.7805579675461871, 130.0541026421489, -30.493004082715814, 196.33636932198107, -23.54880384207786, 457.7259957692067, 3.9726796124849244, 204.22620882553719, 9.768235234581482, 219.3254172224006, 145.16184266157524, 404.1555059787484, 0.9350831407198735, 0.9744529538750523, 0.9808934981841749, 0.8891859543528596, 0.899460374914682, 0.8725528234274772, 0.9965116759624002, 505.02513276214745, 233153.34065576165, 36.591772067792334, 1028.7881301331402, 931.6487827452113, 99.13027709577581, 1.7759965225628433E9, 0.0, 2026-04-12 20:22:02.577
0.0, 0.0, 35.22449540797258, -4.615717170053472, 82.98355331365349, -23.154577069328496, 135.38174771418772, 0.7131414690344542, 163.95407604368057, 33.57340741523298, 242.37681819212366, 131.31782585489387, 28.85244929255265, 191.75405167493457, 19.97902495147855, 344.66020246516706, -176.94148009427948, 0.9270304549804086, 0.9238153089282771, 0.8646914217015577, 0.9750756134285224, 0.8160187486228447, 0.8897001415282494, 1.0097827263275696, 474.91007690619557, 257681.41889400606, 36.592318569065014, 986.2958686811675, 947.8855304783792, 90.82874841121598, 1.775996522566821E9, 0.0, 2026-04-12 20:22:02.577
0.0, 0.0, 41.776080496684, -9.95808475241553, 103.93880226674456, -21.05575677612626, 100.695045965753, 50.6872256317004, 49.63778506999474, 162.10746138178027, -29.977424948352706, 237.8593199403046, -41.29112082428142, 493.012046713067, 37.91563863164737, 141.93607417243976, 223.79063779301097, 0.9423103385861792, 0.8328534038991219, 0.8167135774629689, 0.9175531277940915, 0.914014254929194, 0.9533411275481262, 0.9244454589604797, 521.3660801563714, 256629.10877318998, 36.5978467568314, 1047.6404689543701, 961.3610239309846, 90.77967625056301, 1.7759965225709355E9, 0.0, 2026-04-12 20:22:02.577
0.0, 0.0, 44.9608099501084, -8.450626772735674, 78.0518951065505, 20.772910370404244, 49.47376068697628, 135.44479725333568, -54.87635320574415, 197.04393374525264, -32.047841295316886, 135.55250592673127, 142.4677654720777, -72.67114180548583, 332.9304687543995, -52.077617390409216, 195.16624083601943, 0.8090740312634418, 0.8531628814113632, 0.8119119027931152, 0.916078589913332, 0.8369780399885589, 0.9818536413525544, 0.9804244541278714, 496.4249965558993, 261317.45053017966, 36.605742681829824, 1076.5566870229072, 1089.6130745066107, 90.1701697129008, 1.7759965225749757E9, 0.0, 2026-04-12 20:22:02.577
0.0, 0.0, 48.881859004189266, -7.40029540527452, 69.3035649392824, 64.1603314865902, -13.993365987106401, 179.907960328183, 26.299271304093097, 125.58982618338942, 165.26007107622215, 0.044111897518064325, 290.13683999155216, 53.43470877353073, 133.54726135315897, 384.0169546937558, -103.81254009760119, 0.9799185881135822, 0.9446904553779644, 0.8810733516436229, 0.9797595599518633, 0.8671709726988293, 0.9812513126098122, 1.0063175448862474, 483.16596268748873, 232111.35778216933, 36.59035982089781, 993.1935207719537, 967.9290048320769, 89.1366436998567, 1.775996522578936E9, 0.0, 2026-04-12 20:22:02.611
0.0, 0.0, 47.757593088265196, 2.199094814597327, 38.49842890241858, 109.36134773666934, -12.276730739588999, 128.87456480511113, 93.59586706984241, -6.214719278043262, 256.2386375942968, 14.731570938634647, 106.57171407976529, 204.56308354555938, -53.933092885462855, 255.8916381107482, 213.30935251821808, 0.899206722908453, 0.8179798692034068, 0.876387803442846, 0.909914571199384, 0.9010748847484454, 0.9577685877241199, 0.9477672250577647, 548.4679044236163, 249716.01505487633, 36.599145627404745, 1020.4245923150193, 919.5458189175295, 82.61919072131649, 1.7759965225829985E9, 0.0, 2026-04-12 20:22:02.611
0.0, 0.0, 49.89843078074783, 12.042452596651188, 13.351563917153687, 125.43813553837182, -10.261300598057318, 57.53908767589302, 215.56359985147392, -29.73292995147088, 113.53425767037338, 253.11345672192957, -56.442642975667326, 193.11012436050603, 268.06528658815085, -11.150267439128896, 304.9374546420554, 0.9490844297214321, 0.8478554946794481, 0.8682461580765309, 0.9302973494161587, 0.9780841443312399, 0.9201558357690186, 1.0775844309155702, 525.6091446265954, 272475.5631789791, 36.60854838050506, 1022.4316984893054, 1050.6979321389101, 97.83068917463281, 1.7759965225869968E9, 0.0, 2026-04-12 20:22:02.611
0.0, 0.0, 44.381114312351876, 28.97142505719222, -2.993176117073965, 126.11423191042068, 59.861634385851836, -42.18575637749281, 144.03542478293807, 92.63384084890188, -47.73335658570335, 282.0455707904024, 127.97553965457566, -116.59489541785197, 383.68294463799765, 166.73516690029354, -166.83620956636673, 0.9256952654126523, 0.8576271316429203, 0.87065760149967, 0.8843496616375723, 0.8997790685153675, 0.8884237767934904, 1.07039838455342, 511.03314108867147, 251388.5069012516, 36.592647660879216, 912.5848144213738, 1040.9416792244438, 80.08958413603752, 1.7759965225909832E9, 0.0, 2026-04-12 20:22:02.611
0.0, 0.0, 42.46577567378943, 44.23610890063189, -12.313826173174043, 77.40499872159756, 111.80588088889407, -43.2081315876963, 83.06666823250107, 243.1189455494868, 32.740836282657554, 31.751351086143018, 297.784303042288, 47.524090641805444, -64.55850757803424, 468.99471689935126, 158.7516630337403, 0.8166388192854098, 0.9931282480802605, 0.9002452681460661, 0.905433341358021, 0.9717996242313435, 0.946598556325189, 1.0856736800137707, 532.7885949591707, 233978.4343986242, 36.59146142372764, 943.4439227747878, 914.4796398150849, 80.07882097287981, 1.775996522594843E9, 0.0, 2026-04-12 20:22:02.611
0.0, 0.0, 36.91495915908588, 62.24478719257009, -0.8196841958399617, 34.26544553834948, 157.650451527278, 35.29822439871766, -9.417893489374592, 191.1871038736403, 188.13829285794924, -7.55431564555812, 127.7022543618898, 363.26250545935034, 21.48342475232596, -43.67537702259173, 272.70950638580257, 0.9268732929583675, 0.9271844968215942, 0.958771072483804, 0.8527452736296086, 0.87644192379497, 0.8954542750698948, 0.9687550815655098, 478.30557196606395, 230208.91949208186, 36.60660131979548, 981.2192530518565, 989.508025563918, 92.70573370813476, 1.7759965225988536E9, 0.0, 2026-04-12 20:22:02.611
0.0, 0.0, 29.005007031036417, 68.85803301474331, 11.910967561516909, -9.339577008500967, 141.93151687677846, 105.36774803619694, 8.172569691649173, 54.771439319405964, 233.6957357046048, 109.49523787124335, -26.873525523227244, 181.16667845265218, 304.6201044999351, 67.05266812034317, -150.935951347799, 0.9788366838512893, 0.9541410410744992, 0.9563324580765581, 0.9473804327926206, 0.9807558435610316, 0.9424247181514885, 0.9168065886643946, 511.68405653430426, 266954.219077679, 36.60346540553008, 1014.0452527431261, 927.3891812872481, 93.31940308198212, 1.7759965226028416E9, 0.0, 2026-04-12 20:22:02.611
0.0, 0.0, 22.03960278269152, 75.76276426485559, 34.330752497454256, -14.361655584120413, 70.3566036000078, 137.72447100505167, 58.708570140697724, -58.15969993046343, 124.52533435026139, 260.73468223590066, 94.62199554132914, -81.44584290256137, 203.22213049659024, 246.90335520805115, 82.59581769139348, 0.8858427131662034, 0.8813539568166452, 0.910711407683059, 0.8820364326635927, 0.950755682803129, 0.9782185141109178, 0.974893645082779, 503.7805668362216, 252609.4687959825, 36.606495554257066, 1034.7823697410865, 999.3438814809276, 83.4770380210881, 1.775996522606655E9, 0.0, 2026-04-12 20:22:02.611
0.0, 0.0, 14.925416499863687, 72.41197037723943, 62.61717621765904, -11.270416493419013, 3.6901564194364056, 153.58236110224064, 174.20488364731992, 36.674960880123194, -67.07433080191251, 160.50659753532435, 187.3147539407633, 112.63462388815847, -157.71129543956997, 125.41012452447345, 249.45713240687303, 0.8586162077328006, 0.8569976125924477, 0.8352673360180863, 0.8853055876138811, 0.9526436949796177, 0.8677247401779027, 1.065422973936499, 537.8806724486391, 252602.4259650413, 36.607129225971136, 1059.2824408109834, 1063.6460488510545, 92.59480946357192, 1.7759965226105185E9, 0.0, 2026-04-12 20:22:02.611
0.0, 0.0, 9.000940953275382, 65.34736907058715, 91.94411748420833, 25.518425113068027, -24.868636997297884, 63.71755958230896, 160.49486674392324, 167.65248828786613, -40.95376014814164, -41.901339776503846, 160.13567877760534, 373.95410481557985, 363.8592023473252, 61.80362334113188, -11.091502157784191, 0.8898508348884646, 0.915434482313657, 0.886904881604068, 0.8284139113520855, 0.9492275836084206, 0.8667297175831405, 1.0338294027853079, 528.8443488759281, 233854.32933598358, 36.60740437432465, 963.783016730421, 1077.5546021270277, 88.56805572241907, 1.7759965226145208E9, 0.0, 2026-04-12 20:22:02.646
0.0, 0.0, 3.128958330844206, 51.53205399172266, 86.25287576729173, 63.40301434613701, -6.116094164839012, 9.050674775148288, 101.7349949227494, 177.38526099797735, 160.84799042248443, 48.31445643563889, -154.29616848772827, 136.90156966083345, 768.3168634251813, 537.0461327196691, 131.88583088324535, 0.816343992847966, 0.980458120059739, 0.8062114664645617, 0.8071907549696202, 0.9082635092450385, 0.881128036494497, 0.9192184518968652, 542.773307889427, 232458.3416142276, 36.60623092644344, 1072.9594361485022, 900.8321248031363, 94.05280867939899, 1.7759965226188943E9, 0.0, 2026-04-12 20:22:02.646
0.0, 0.0, -2.5213239554652844, 36.34757519589851, 94.75930493036765, 89.40923556151054, 38.83949666024134, -4.013384414401955, 21.901776661462975, 142.87815468388894, 195.42353133665307, 158.72000533707296, 98.3707537086265, 50.745489849178284, 61.30141869708309, 525.1258034413393, 790.9341813381271, 0.8958106394056718, 0.9111958791677582, 0.9436855189678272, 0.838672124011869, 0.8894999528394271, 0.8381401161035961, 1.0727801563823403, 544.6223543630641, 272109.13995565387, 36.59566204968037, 1011.9784960638909, 1008.5871094999624, 93.23307985124629, 1.775996522622918E9, 0.0, 2026-04-12 20:22:02.646
0.0, 0.0, -7.53128532673945, 19.94927752892476, 70.74129143907055, 116.75335703974501, 100.23694899574241, 18.469902283132903, -73.73433926767262, -35.8961833968048, 128.73852567399354, 511.9357273372204, 617.9191511396361, 143.9140731340528, 52.682747742078206, -35.10109287684543, 181.2809723579959, 0.8603898498148245, 0.962802593044992, 0.98367512689997, 0.8745534801644308, 0.8687228397190057, 0.9290069154622193, 0.9218684411143783, 518.6723917200183, 256700.45012543004, 36.59979044282327, 915.4364299351205, 936.5882670173355, 97.5753677088033, 1.7759965226269195E9, 0.0, 2026-04-12 20:22:02.646
0.0, 0.0, -9.476040931284356, 5.505762963547543, 50.21988630843688, 118.47019829184731, 125.55466505670393, 112.16831317911073, 24.023876876399896, -65.5551932585847, -36.88387698523354, 133.68804338350196, 186.8550429073195, 269.860430150732, 343.3107948114638, 156.77682261010125, 46.67229061906667, 0.9986635198689765, 0.8403343770278904, 0.9308099489414606, 0.9334036332728838, 0.9010292022939245, 0.8013343424375192, 1.0172546652549224, 538.7262228168873, 245975.38685410563, 36.59527991591856, 1066.4819242206345, 913.616853898316, 83.20812525058831, 1.7759965226308465E9, 0.0, 2026-04-12 20:22:02.646
0.0, 0.0, -5.431378565641758, -4.689206064114387, 27.403578626434154, 80.01073963321298, 136.13618609198735, 156.0708826861619, 124.3194555808897, 149.257904941714, -49.093946499566925, -41.83691919289262, 34.33714873733487, 91.32480131627909, 182.06689966650117, 366.69128497553595, 517.5892208916557, 0.8863425817423967, 0.9870426695172597, 0.9761186143090202, 0.8338278527199653, 0.9111083922909052, 0.9232580599577244, 0.9141006879603777, 548.998696130491, 271107.31355927006, 36.593948609108715, 969.5495516955789, 1020.0641378431848, 93.87824416226745, 1.7759965226348598E9, 0.0, 2026-04-12 20:22:02.646
0.0, 0.0, -5.753297125233679, -12.213643817895644, -5.7513387547642125, 34.41485067641201, 96.97869234885081, 284.3955398714785, 208.09024802627914, 385.9268599084611, 172.85340304458902, 94.74357581612433, -25.18936279447655, -23.208463462321845, -15.002981843193737, -86.79195599320033, 130.32727584717836, 0.8698431444680043, 0.8256462803074378, 0.8464429602918664, 0.8429159218357611, 0.95043733836682, 0.9904179538739027, 0.9364902819833294, 484.4113442263283, 243800.86587405964, 36.59603681197466, 930.5672972612837, 987.4798609968342, 86.92018088950113, 1.7759965226388655E9, 0.0, 2026-04-12 20:22:02.646
0.0, 0.0, -2.9928199803868836, -16.186673071063623, -13.703459447767855, -3.046950145534346, 23.251390735031407, 169.66735566765126, 155.90020195622918, 233.1064420422608, 212.86287100349543, 324.33557056895825, 281.87782856535887, 152.4216251421186, 124.25757886215672, 6.41908565814353, -21.536676814895742, 0.9782173497257941, 0.9298987908644595, 0.8813747491564038, 0.9069196375944418, 0.8159466965707294, 0.9645098089584184, 1.0417007750693388, 498.7627410974844, 278367.8340551518, 36.598544308564854, 1011.6743509706505, 927.2116921402935, 96.68196717616381, 1.7759965226432338E9, 0.0, 2026-04-12 20:22:02.646
0.0, 0.0, 2.3486748422927484, -10.965781633689396, -12.593212748839179, -28.034513623622715, -36.291691986699945, 5.850570293496247, 9.143756944639563, 76.79046423424687, 122.92589218758731, 183.80642924020418, 307.08353748863806, 689.7187837541533, 369.4480734361993, 320.1090023806545, 253.00625603153514, 0.801453291013966, 0.932481523048995, 0.9149373053532864, 0.8409390643949051, 0.9409586285587904, 0.9060125852062212, 0.9569691459965286, 542.5460403693045, 235926.41699566378, 36.591482075398154, 1077.4649483462247, 909.0092168497681, 84.22668249598033, 1.775996522647221E9, 0.0, 2026-04-12 20:22:02.678
0.0, 0.0, 6.5693149539441364, 5.22502231510089, -4.935114061815362, -23.192126491010498, -29.661196883811655, -56.41575429322744, -65.7468435666731, 7.492314199646486, -58.781246383827266, -3.3693409532508554, 35.91388592694565, 131.75788019195562, 83.91143369722346, 127.79818835402392, 171.55512474170078, 0.8688084342535248, 0.9475965862101478, 0.815421767031481, 0.9729233939789089, 0.8570185694467874, 0.9306927019979246, 1.013150881603796, 516.4243635566593, 263721.4618267909, 36.609952787006925, 1025.8540934750827, 951.9260296448954, 89.9371401762096, 1.77599652265122E9, 0.0, 2026-04-12 20:22:02.678
0.0, 0.0, 14.43037363213713, 19.234591340094234, 17.346311501839537, 14.61504371827317, 10.800153039251924, 0.40762198352570067, 3.281217240865459, -27.72923587670917, 21.116301167024673, 7.399815086131397, -6.760082056739961, -142.48146478148814, 0.6435776348129991, 90.61350608441191, -225.3309112461153, 0.8536341374789503, 0.9674650612882912, 0.9293217544145641, 0.848400245966214, 0.8499158353128776, 0.9644737026813975, 0.9898704604349432, 510.4902742555456, 239356.48378421197, 36.60969461656238, 923.5553102825797, 976.2427464726516, 83.13018195023128, 1.77599652265509E9, 0.0, 2026-04-12 20:22:02.678
0.0, 0.0, 21.31077560540623, 34.187509243755244, 47.44201600631685, 65.38202751973796, 79.3330151173223, 105.46534554626672, 240.72385675373056, 153.67748350562132, 333.64920672288736, 145.53290924766765, 194.92879233243036, 249.97030232545364, 326.59431091419566, 319.3014864055152, 381.3406134792413, 0.8067992098305846, 0.9478904115376795, 0.9272742955666483, 0.9728198246808321, 0.8540277400814514, 0.8677290868497688, 1.0830603561382803, 527.8228621821872, 260502.97390040974, 36.60284757824615, 942.2762710608705, 1032.47001113312, 82.25879575822937, 1.7759965226586063E9, 0.0, 2026-04-12 20:22:02.678
0.0, 0.0, 27.693219701396213, 46.859696965670054, 78.95520882279783, 91.4781569799672, 127.74412733005128, 181.26598034258546, 220.43246767105452, 188.0768567899885, 500.01123536332295, 336.34515866812677, 314.3537758996571, 321.2428978953368, 325.62226096771826, 263.505383042204, 252.77431194612484, 0.997975727958612, 0.9587543511175772, 0.8220885434579656, 0.889830052028957, 0.8452014070431895, 0.9458667507914292, 1.0461235026002216, 464.3938105688599, 237493.85659601804, 36.60783089504666, 901.7418880531134, 1095.7322772066204, 94.88978537527707, 1.7759965226626036E9, 0.0, 2026-04-12 20:22:02.678
0.0, 0.0, 34.47271335462908, 58.17984325655425, 97.3923242973934, 103.78262187526533, 137.94000256270166, 161.07653904453935, 178.3439504600587, 131.721718776714, 245.83166084968292, 87.22120092673778, 77.10138804479374, -54.987061465055234, 69.93828677702072, 38.82894403271847, 71.88458943632617, 0.9331569429171224, 0.8013281397687851, 0.8387966981508039, 0.8572749571497384, 0.8993798506185844, 0.821475236336341, 1.0711855829149775, 537.0293525391181, 261345.87552198023, 36.604006099741646, 1090.1736144571862, 975.1846792320905, 85.19678586462031, 1.7759965226669865E9, 0.0, 2026-04-12 20:22:02.678
0.0, 0.0, 41.319129247732846, 71.27139045004645, 93.03284449983741, 107.13748773143033, 107.98336623725524, 96.60840845806928, 49.67865746131326, 42.731388955926406, 20.37844816383108, -122.48180972766801, -45.37823284447134, 34.9401736684368, 44.758604114504294, 173.82052781164782, 290.6049646352776, 0.8000725868416797, 0.8704084999983556, 0.8261767719905744, 0.8008201770434032, 0.8919155145786088, 0.8326239376325714, 1.0441630822814738, 505.286971990325, 255114.5336443868, 36.60192804756525, 945.3509278927258, 1009.2228362734899, 92.89553582599783, 1.7759965226709507E9, 0.0, 2026-04-12 20:22:02.678
0.0, 0.0, 47.05970340389536, 67.47048465554134, 83.87982886208087, 77.85565424304038, 46.45721003903788, -0.3358027457005619, -58.99775263544228, -37.72188578718176, 19.85249805725111, 54.409612639195046, 140.81287146263338, 228.71852638641255, 292.038887654497, 447.9572045922336, 227.53819091735556, 0.8148816349945158, 0.8827945463457578, 0.8096587120137299, 0.899783843718272, 0.8867647464168055, 0.9078741993545577, 0.997545832781567, 543.5167114044239, 230557.0393098712, 36.599377699821666, 1043.2152493743918, 978.2151031639883, 85.91165154437742, 1.7759965226749873E9, 0.0, 2026-04-12 20:22:02.678
0.0, 0.0, 48.979500940729125, 73.72763134100214, 68.85740757290473, 37.678706042775644, -11.292830238808548, -7.494606480591159, -39.29242538164026, 71.7008366922407, 162.18507225234555, 243.40903351151198, 279.13187536474186, 310.5182964195716, 264.9122036501833, -26.591244210213887, -229.09723343477037, 0.926779444077844, 0.874387506643659, 0.8529828731758877, 0.8468663155303596, 0.9423373721663767, 0.967591452178972, 1.0563214539574075, 468.3583801786962, 246401.9347528405, 36.59962620292389, 935.0785423702397, 1048.2574294605856, 86.13995078025013, 1.775996522678893E9, 0.0, 2026-04-12 20:22:02.678
0.0, 0.0, 50.756064828442064, 60.89211242310729, 38.54329017472268, -11.282400061038985, -14.613445616353516, 15.399062575929314, 90.00027047077893, 222.53931742515528, 212.91255427215228, 171.6940876827535, 82.6714347483348, 31.05579831916873, -109.54173696857674, 35.95625436838333, 396.0635505611549, 0.8252114577125436, 0.8776778237875141, 0.8863251063305454, 0.9597781081107689, 0.9351614418722268, 0.8027306971960115, 0.9007810841153705, 484.4080421448189, 269816.1191065021, 36.607515442097416, 1020.5566747617834, 1028.8765977490139, 89.65153077971667, 1.7759965226828835E9, 0.0, 2026-04-12 20:22:02.711
0.0, 0.0, 45.0886727382521, 44.349357077037695, 15.038114691693668, -12.890012019746628, 2.359935301989516, 170.1408099099911, 401.65432992746, 420.40151348448376, 276.0627579401323, 61.391730969497274, -90.92981590700862, 97.7618714424726, 483.9515197610359, 533.0468574831337, 794.1930932065166, 0.8446748264367614, 0.9822396333404498, 0.911850453355182, 0.9076809836028058, 0.8162522858406768, 0.9461743358867208, 1.007427428214888, 456.8228976827735, 270078.4228164499, 36.594333492877, 952.8186861175537, 915.5663447824826, 98.19464679511533, 1.775996522686918E9, 0.0, 2026-04-12 20:22:02.711
0.0, 0.0, 42.780852782210005, 31.053165628894092, -8.200243019080062, -8.745472172888135, 59.887674029845925, 329.7745150694084, 405.72470850699676, 156.96856726266032, -17.157243196848555, -6.066139076181258, 258.6558869797714, 449.6418978046771, 607.7953400857473, 279.7052267648249, -205.99872610103853, 0.9332896798561986, 0.9462261418746515, 0.9244176823997076, 0.9475787257563272, 0.9222402675408922, 0.9201995524005656, 0.9326387858093359, 545.2787616056269, 232164.53769624265, 36.60425227271638, 927.145274784099, 1048.3454395389904, 94.83646392142727, 1.7759965226909344E9, 0.0, 2026-04-12 20:22:02.711
0.0, 0.0, 42.46036776625253, 14.772179560870661, -10.271220268516025, 13.71017939074077, 101.22463261220648, 144.12593236525447, 83.51589180122849, -41.9185387165426, -40.18934128469627, 138.42628011440493, 323.3904270638539, 247.60193232552325, 29.96861478294788, -181.747574810103, 159.7170304647928, 0.8571001225469064, 0.8573785718151381, 0.9374846384581142, 0.9857550709955311, 0.9331661756678292, 0.8353577286799349, 0.9135649242424299, 540.4967866610012, 264237.775247687, 36.606308960991626, 1017.3961388810274, 900.3960937380176, 96.77546632221231, 1.77599652269463E9, 0.0, 2026-04-12 20:22:02.711
0.0, 0.0, 34.2779089308487, -1.34649771972569, -1.2207695373855927, 61.27819517596744, 152.469716630851, 98.81850564403672, 6.288825830977132, 2.604257741897584, 164.96737531737514, 204.21501302509745, 139.1654668659006, 39.32303247196998, 90.79208199057051, 219.57922499023863, 315.994284900436, 0.8083382207442134, 0.8568772723150841, 0.8035156743508974, 0.8103054952468752, 0.9680388665752903, 0.8614354235026495, 0.9219819571715185, 459.77442667511446, 248613.31845269722, 36.60741916559026, 924.2626611479932, 1076.499558739126, 90.92908693298615, 1.7759965226986172E9, 0.0, 2026-04-12 20:22:02.711
0.0, 0.0, 28.711980912779364, -6.763403190564276, 4.041074388511731, 115.12061581475024, 113.10150592012069, 17.243126275886304, -31.10459466597149, 124.13583650808357, 217.01312755670097, 110.42341371821036, -70.50794604592275, 77.46491600012612, 346.70162439941817, 330.26206034065024, -50.702826175974224, 0.8042336209562565, 0.8947820028516712, 0.9368320497307902, 0.8841775786460596, 0.9044209288931929, 0.8658137152808473, 1.0220355399398793, 545.9564548623666, 234393.74899601238, 36.59345673391053, 1031.519651317508, 1095.3481298867623, 93.60860559321361, 1.7759965227030609E9, 0.0, 2026-04-12 20:22:02.711
0.0, 0.0, 21.944117578745022, -6.365167155285953, 34.37765943112579, 120.71154036757972, 67.62597878382971, -40.92128809723425, 66.23926959123503, 209.4859871443917, 123.20550013180335, -58.802242551798685, 70.72585404698921, 376.23697126403715, 216.45901492187167, 23.165317192425945, 84.66869388245203, 0.9651971320468397, 0.9236172048647148, 0.8597463122890266, 0.8531941977214359, 0.8860500164394006, 0.9862208717018665, 1.0390651814957481, 526.0499113617018, 231305.2594184285, 36.60431928396766, 1013.5084841167934, 1037.74744543812, 96.69853051879217, 1.7759965227070403E9, 0.0, 2026-04-12 20:22:02.711
0.0, 0.0, 15.086130253479535, -9.947230553368868, 58.641339308642635, 124.59897178058131, 22.28945243313695, 11.970103166814297, 137.6641043351102, 164.98911768066444, -69.57841806344283, 67.3711231493261, 372.8658542075175, 168.1724852178179, -55.77709792552503, 167.38841934242498, 536.2751860290396, 0.8807584432182598, 0.9632853307446784, 0.8014952519553307, 0.8216220215003429, 0.8560036082015663, 0.8041246405118299, 1.0044024773608355, 503.5247963904721, 245414.80221678998, 36.60892376650395, 942.9724142301183, 954.2406788671815, 88.4191762521638, 1.775996522711054E9, 0.0, 2026-04-12 20:22:02.711
0.0, 0.0, 8.933777169087664, -1.9291310962190877, 88.27698536266115, 84.762028942363, -25.422164201887355, 74.06704368432855, 159.22765751934827, 24.994821326023, -35.46260968361685, 297.6228738239329, 175.4781777556356, -18.313163056582056, 152.31700590346298, 384.80923213683604, 121.75613288272635, 0.8040611826201087, 0.9642506385791038, 0.9134358006613127, 0.8738139142982858, 0.8831088118163573, 0.9379191400095789, 1.0443963072070033, 541.0743914192727, 235664.79113413862, 36.593800483048206, 1096.531015981337, 976.6869145918654, 96.69857475213045, 1.7759965227150655E9, 0.0, 2026-04-12 20:22:02.745
0.0, 0.0, 1.1035405248675758, 10.597695806807266, 105.26323420472005, 35.515811241022746, -30.932208908266134, 139.0024779094582, 120.11092157970516, -41.47613593452775, 146.85716121245665, 162.4439188920789, 10.765710537390945, 126.69444891684168, 433.41729685993744, -78.77767059886656, 70.63820888403487, 0.967698166038197, 0.8717140374320177, 0.978888348047153, 0.9635935874400968, 0.8849471376948904, 0.9803743788115412, 0.9932040155799244, 511.56428486713514, 260861.7823886844, 36.593497848898785, 945.1737958602598, 1002.3028472799227, 98.53938817569112, 1.7759965227190626E9, 0.0, 2026-04-12 20:22:02.745
0.0, 0.0, -2.752083049905419, 22.859293102830655, 86.12823097872385, 7.746773700868559, 44.35008437388436, 142.9624447032149, 20.989628070679352, 31.003278419615043, 229.4819070480628, -17.16140854285085, 59.363463864826684, 265.15609259032914, -10.685498656336279, -17.69186513131865, 352.4060744091671, 0.8630412095680822, 0.9846901679258565, 0.8496370960052857, 0.887581017863155, 0.9006825696001154, 0.9510333836030244, 0.9088220062839681, 497.6685498205976, 260731.10597817117, 36.601933933531704, 1064.0150858412064, 1039.118164674462, 81.93294081995536, 1.775996522723138E9, 0.0, 2026-04-12 20:22:02.745
0.0, 0.0, -5.311435325419666, 38.74217912194458, 72.48741161868604, -26.47327232718777, 90.51446414271271, 128.47171745081357, -64.16073346136633, 218.00060364845433, 114.98315620013008, 22.086091189661943, 232.8372532140357, 104.13234243806265, 49.06527685492679, 228.2556276558148, 114.19265813594589, 0.9713182491473414, 0.8116825639721713, 0.8323330642657949, 0.9674369753576434, 0.9356198733218569, 0.9880581916691588, 1.0178650389782204, 478.9072548060599, 233869.69816750416, 36.59194663031104, 1058.296147432, 1039.0040813698934, 87.79934163259205, 1.7759965227270672E9, 0.0, 2026-04-12 20:22:02.745
0.0, 0.0, -8.80137128816072, 57.14560542817457, 55.22572128787866, 0.8325409102217165, 129.48403682001634, 41.50525121172301, 25.674956806081006, 252.82802594339208, -80.40847567403856, 133.9571846036735, 157.91606495089323, -106.47921125804723, 386.47418816557047, 132.8035674072116, -87.78565537837176, 0.9785663054218469, 0.8344009438586492, 0.9738034578480242, 0.951497433806472, 0.8888891680064542, 0.8753981173604215, 0.936244103868311, 495.7726106330128, 234715.79147945385, 36.60207253918775, 1062.26961326286, 1075.8206950353658, 80.64556983799106, 1.7759965227311168E9, 0.0, 2026-04-12 20:22:02.745
0.0, 0.0, -8.852984394316106, 68.92618746879128, 25.829504396144962, 21.318108580020684, 148.60130469598877, -47.54366912107713, 137.28325933434883, 107.2850152085935, 48.91063884316582, 226.76689919351062, -85.66776947346702, 189.2463020258605, 218.5903788819703, -168.8567891042009, 539.9356825095274, 0.9561736597523286, 0.9890344575966684, 0.990718668773053, 0.9989947193303942, 0.8538133341174798, 0.9897800922385792, 0.9432238453614136, 456.3544971971597, 238508.34375533537, 36.59942250576548, 932.1361804246064, 938.9823474948049, 94.51962222042137, 1.7759965227350848E9, 0.0, 2026-04-12 20:22:02.745
0.0, 0.0, -6.818082858727088, 72.24975450375004, -7.138963619706608, 63.98529306403144, 92.80417449678511, -27.034017434406593, 211.4495849213571, 13.217143810236081, 186.1783351586264, 128.9714783918299, -51.57681926736282, 283.4841088852812, -177.6013716824824, 365.20945476154577, 139.21966587111672, 0.8074943539949682, 0.9988171811133185, 0.990198472620179, 0.8714901286450684, 0.9186281200098955, 0.9361627997289578, 1.0287673096232535, 462.25607912686803, 263671.8017470126, 36.59097394119341, 1050.549402235826, 935.2372154689896, 92.28775759005191, 1.7759965227390804E9, 0.0, 2026-04-12 20:22:02.745
0.0, 0.0, -4.416587495125427, 66.71357350939942, -9.799645213666821, 107.32132515634397, 28.689330973231947, 60.89458269803637, 134.34002778868455, 25.365126545038322, 283.11455163236, -88.73937884174111, 179.58836819525945, 33.7688161283932, 107.89640201043686, 301.1767771672887, 0.2521274952026147, 0.9001927384856202, 0.8813633309858969, 0.9857072374559451, 0.8362240652625134, 0.955652029804955, 0.930592558357605, 0.9423165925666308, 450.38039769523533, 273524.7191772006, 36.59040209536237, 940.6492618601753, 1089.8714782055267, 83.34500566758393, 1.7759965227430828E9, 0.0, 2026-04-12 20:22:02.745
0.0, 0.0, 2.6952516817645034, 68.11367719797889, -21.792195345066695, 131.10050271974734, -29.424216714936804, 117.18806363079966, 27.71293870937376, 105.35975083844026, 134.00764839854867, 34.04644492245342, 282.46158025983266, 70.51618878736954, 303.6378082500715, -250.31507144739584, 615.2597305999852, 0.9894173722834482, 0.8829193850436547, 0.9113959809090911, 0.8379039125887298, 0.8744925311566483, 0.8240442753758366, 0.9095046113797224, 529.5535511856386, 236948.89684466025, 36.59825362965477, 975.5024343083774, 919.3209336031466, 95.673685391573, 1.7759965227471244E9, 0.0, 2026-04-12 20:22:02.778
0.0, 0.0, 7.358816951835575, 52.92935776106922, -2.016304816380746, 97.07275210206821, -30.053131039110895, 191.80526088125487, -13.018019733143149, 200.6789035310826, 6.459173183236771, 229.71789153844776, 66.88034066243347, 257.96119293624145, 162.3926900935782, 333.66895713240314, 428.5102081302855, 0.8083488312373931, 0.8472536245091088, 0.9611163532665822, 0.9594450540404543, 0.8225026923314672, 0.8084235805586241, 1.0415936072421983, 529.2327690243646, 275708.5148434075, 36.597785581931475, 1036.8729780358026, 970.3098256283345, 84.40448244478799, 1.775996522751168E9, 0.0, 2026-04-12 20:22:02.778
0.0, 0.0, 14.182885102505622, 42.60957112880266, 17.423836559006688, 77.49928397947097, 12.736732148446343, 118.93439296758791, 30.530551037006965, 186.55408615974002, 26.917440770078443, 206.8177432689268, -54.81340833547196, 279.52613802848896, -148.35564122391776, 641.4058808977322, -142.85469723453338, 0.8056671506633724, 0.9843952777117401, 0.9478766583566901, 0.9877837239033133, 0.97483634650519, 0.9172586051422001, 0.9200185093841414, 484.28485307707297, 244440.70143151734, 36.599001567280716, 1025.7795251290195, 973.7691596651745, 90.06273427666328, 1.775996522755126E9, 0.0, 2026-04-12 20:22:02.778
0.0, 0.0, 21.4980382327112, 25.63744382477619, 49.88441228279251, 37.814451623904304, 81.75110063520809, 34.27603007141072, 107.44377777095657, 48.89311690844918, 135.24189880826813, 28.344639081727138, 163.26018209797013, 7.215582803201244, 576.1608407424844, 47.56324958334815, 396.24693999951063, 0.8684321644031333, 0.9382616287934727, 0.9297266922605493, 0.8346992192127962, 0.9082855162411908, 0.8639024833603005, 1.0196213607394982, 548.537328216025, 228925.1530505025, 36.60357982340446, 921.9894551697107, 998.2371513256201, 93.18435153037522, 1.7759965227586737E9, 0.0, 2026-04-12 20:22:02.778
0.0, 0.0, 27.80071804908605, 12.93061904323963, 70.3489049037793, -9.95641019531525, 126.1559159064269, -47.64804000366276, 185.0401938689343, -35.48945702265637, 181.6515857912948, -99.1079293873324, 484.3645486930451, -99.32039533715601, 318.33277952789217, 5.130838785467432, 185.13393885335245, 0.8453715844397344, 0.8345287470077887, 0.8358469289141137, 0.8671855015483948, 0.9534101082525216, 0.990221546704409, 1.0100777896010682, 491.36246661982096, 254823.24570552423, 36.59008054921623, 955.8646559407257, 970.1062371543145, 88.23165914181362, 1.7759965227621644E9, 0.0, 2026-04-12 20:22:02.778
0.0, 0.0, 33.54907893458729, 0.7065024977680459, 89.13239987719535, -16.921768273652745, 168.1265628459853, 2.6467348899817438, 157.6450262136714, 51.38901755036284, 116.07230202042376, 121.7797352915448, 127.25113383251514, 521.7283260122335, -6.946568713679824, 330.09851949853487, -193.6702736398105, 0.8947570459616702, 0.8547198253381526, 0.9796782375729148, 0.853637860626786, 0.8438244767886881, 0.9131657915646737, 1.017871288037022, 504.91121738586264, 235560.0438913774, 36.6016386709983, 914.9591338921, 1070.6869253017799, 95.35775648271657, 1.775996522767128E9, 0.0, 2026-04-12 20:22:02.778
0.0, 0.0, 39.062879652743725, -8.881563011787826, 104.54970128855837, -1.4226239698079652, 114.02064292876351, 54.440073775745645, 46.43764624437857, 176.779384940297, -26.375124884846542, 582.9813467281679, -36.54915465578469, 211.69049877855932, 91.16391441939497, 135.2117859180294, 222.25903809334295, 0.8470308141779417, 0.9693881249506716, 0.9298714885115883, 0.9064403474702579, 0.9568417080522226, 0.8527142752177984, 0.9738354468755561, 496.6136324457732, 266823.0080623782, 36.60248849736759, 982.6242128769691, 1013.0415737113161, 87.10008541646945, 1.775996522771197E9, 0.0, 2026-04-12 20:22:02.778
0.0, 0.0, 44.148026348071404, -9.079002892873532, 85.28829661844934, 26.35310177291769, 49.33125292633231, 122.60751186462707, 7.501334280475874, 187.01369957781392, -53.005025992106965, 294.2180951380152, 192.09878063622142, 17.874477506852813, 337.95205824416985, 84.9019619261654, 226.32417682999255, 0.984111431505459, 0.8492053533717316, 0.9095611282085244, 0.9797342955428806, 0.8632055319325036, 0.9014276073028201, 0.9177444521135564, 537.3698112457637, 273874.9460103082, 36.60940651894347, 1085.389350157902, 961.6479166014541, 94.0088525582572, 1.7759965227748697E9, 0.0, 2026-04-12 20:22:02.778
0.0, 0.0, 48.94364259818855, -11.962535591647622, 70.10100065919113, 64.41579475205688, -10.940039384803285, 182.41467018019029, -6.441422639816594, 124.29169552562891, 136.20809637381296, -14.38425563308411, 234.93847373634733, 25.66351838054156, 136.71459755898826, 222.10205093561177, -87.95095426276373, 0.800988225278837, 0.9163495300408916, 0.8270063439478036, 0.8916825988022752, 0.9398057365288798, 0.9657234980355819, 0.900879016735653, 516.3220276701977, 268987.28293054015, 36.609168076895756, 1022.4155311595471, 1081.9084333961111, 93.40873221001068, 1.7759965227789917E9, 0.0, 2026-04-12 20:22:02.812
0.0, 0.0, 46.71810224515746, 2.8423401811478364, 38.73005647304633, 93.26525823583839, -13.452649123824585, 132.4570770538944, 93.18495683454387, 17.188667928168314, 429.7594625763528, -7.171731972096339, 100.63488733816965, 369.631783110068, -73.51790676542154, 246.2409434650715, 175.33410613906352, 0.8475968428006945, 0.9490221020914608, 0.8802171557291069, 0.9085998349937779, 0.9955504771223954, 0.9086355602637893, 0.9467266394421485, 541.630819003493, 240915.40863953577, 36.60250974882968, 1062.8518516634556, 972.069093467355, 98.32516002534729, 1.775996522782854E9, 0.0, 2026-04-12 20:22:02.812
0.0, 0.0, 46.63341513473891, 14.829493204169307, 10.321846766863061, 112.14205851985402, 13.214662029276042, 47.089822141504634, 183.29887468169096, 14.032884946307703, 270.96036335969296, 272.23258483975076, -81.09626295466927, 281.3774231373757, 212.0994519431826, -60.38252322971138, 352.91669030066345, 0.8881325831938552, 0.9368677597302796, 0.9446517958833335, 0.8903387992478746, 0.9674682521200951, 0.854730516749458, 1.0869783276928948, 488.0100762916264, 272109.2790604347, 36.60712248642733, 937.4282402097144, 1063.5948056200561, 92.10234697273582, 1.77599652278637E9, 0.0, 2026-04-12 20:22:02.812
0.0, 0.0, 45.12008325083935, 28.855592389685196, -4.181631591629959, 118.87347154493476, 59.88842604589232, -25.79770139113701, 187.29955856461189, 172.64950926368942, -51.15824666844841, 285.96379335765533, 126.37166867406708, -13.267567478624414, 223.74113646397169, 165.00352200707735, 70.80289283268051, 0.9593401782907215, 0.8494711598055459, 0.8476009178526216, 0.8759383959816607, 0.984444275686318, 0.9479985841831763, 0.956303713423282, 535.7026922681864, 240195.72894658992, 36.60365089253937, 1071.837548675949, 921.7225954852139, 88.89386595856999, 1.7759965227913404E9, 0.0, 2026-04-12 20:22:02.812
0.0, 0.0, 39.4365367147651, 44.66674836548621, -8.990563371440416, 85.89269287070186, 128.76379385320752, -10.210352803426005, 82.85256945965183, 410.3201761355126, 45.265338887415574, 79.85047622580346, 242.1878733533947, 25.36390640631494, 18.112491771830847, 353.0262249121905, 159.49438625806542, 0.9035452605979138, 0.8551133242582603, 0.9307121258462548, 0.8034470070477157, 0.8930935136270074, 0.8267625963459989, 1.0303008173501527, 506.69787713426354, 248873.79938033177, 36.591726207268046, 930.4273972003184, 930.1293622642561, 99.41003619253473, 1.7759965227953963E9, 0.0, 2026-04-12 20:22:02.812
0.0, 0.0, 35.63599504922672, 54.4439229224038, -1.0316254750615386, 34.531210153037925, 165.0322659644759, 48.85286069692155, 5.751193055100416, 382.48874569069994, 161.17638229336484, -125.05042338166106, 139.8680475720641, 232.52519548347772, -47.50065163887848, -47.62217856541409, 400.73269607252706, 0.8031143628024549, 0.8556391726401156, 0.9015171305687274, 0.8823168596510916, 0.9957829490410984, 0.9521583101795553, 0.9768451022612117, 499.4370255614944, 242270.9993962849, 36.60584823761744, 911.1736662181078, 940.1551800311669, 80.63964889002922, 1.775996522798851E9, 0.0, 2026-04-12 20:22:02.812
0.0, 0.0, 29.517300003745902, 70.5744799995185, 5.402578967448811, 5.601355880307274, 118.14294720280776, 125.64232319359505, -41.58348074005339, 58.249430118789434, 209.58686448322766, 109.6100501288915, -121.71192083910512, 148.61640281854534, 271.8792437970388, -6.792201322629893, -45.359853155394205, 0.8761706807717908, 0.8887396890934094, 0.9583296773640161, 0.8944950902996497, 0.956884635065597, 0.8248849526130566, 1.0431527906913585, 476.67888464728316, 277490.659606396, 36.605274743265916, 1021.7646575067698, 921.0067966223802, 81.16462136421451, 1.7759965228028417E9, 0.0, 2026-04-12 20:22:02.812
0.0, 0.0, 22.135142305772476, 67.59215078610592, 33.47845965993755, -6.539469410519956, 67.66021196310959, 175.22712202267184, 137.7977032464616, 1.9390220769866318, 137.1457163925441, 309.8824384431912, 75.26526996307142, -33.83572092063517, 164.41999730357117, 496.6138373178381, 211.96792282793868, 0.8912988093875021, 0.9321815602789022, 0.9287580989164989, 0.9290216523741034, 0.944519602723438, 0.9926318678044609, 1.051833997283997, 500.9042473729148, 260122.27139901553, 36.603619088550346, 934.9931068069577, 980.2103188057874, 82.73601539807251, 1.7759965228068936E9, 0.0, 2026-04-12 20:22:02.812
0.0, 0.0, 15.478183571235565, 65.43763083680142, 62.69159739508706, -6.174174972037605, 13.440872263640948, 127.92165187893421, 342.58039618559434, -2.4794144966613345, -78.88671670007054, 156.55546215861037, 268.42129554268917, 84.42261079561534, -91.62222096743167, 269.84245097570624, 706.3760873927374, 0.9926105089279876, 0.8011736736047612, 0.9748835630604474, 0.8978175473087032, 0.8775205794012779, 0.839585406993747, 1.0297503915818416, 488.8671478477795, 231346.88001076295, 36.604394398003755, 960.951699362549, 925.8954384829341, 88.09281739882161, 1.7759965228107717E9, 0.0, 2026-04-12 20:22:02.812
0.0, 0.0, 7.860067666449719, 60.213577844870784, 77.52505328015907, 20.7270693729177, -24.051396970564596, 65.52456034785655, 359.85074141859474, 173.76903778738927, -13.08031777688636, -79.74015879774586, 143.82428150321385, 265.0399139254715, 158.10412458424818, -187.92263002870737, -8.361751032660635, 0.8460295859692513, 0.8306141660678888, 0.9484852253972961, 0.94252245201394, 0.8620419889816789, 0.8243637093791808, 1.0859062139538638, 546.9171137655835, 240372.47912100222, 36.607006042603096, 970.0208509994967, 965.861238069062, 87.02991160127146, 1.7759965228147354E9, 0.0, 2026-04-12 20:22:02.845
0.0, 0.0, 1.5203855308322076, 53.09804306239995, 99.19771479357817, 63.21971598771849, -13.30262166798903, 16.44242484577852, 109.65592762863893, 197.9302201934745, 137.69321845656353, 34.25919484600422, -16.247973809693974, 136.9037209305698, 698.8367309604546, 633.6664674978397, 20.053436417670923, 0.8017610254175721, 0.8109595954870218, 0.9159315184662303, 0.8258264537983145, 0.9870525729872129, 0.9789796690097868, 1.0717633045995458, 508.22088038195557, 273084.3446149023, 36.60867211804369, 900.6350605369392, 965.5775392628601, 84.92126754586984, 1.7759965228187544E9, 0.0, 2026-04-12 20:22:02.845
0.0, 0.0, -1.1424831886337081, 36.050110665682595, 86.73724296549908, 112.08810935774031, 40.6909191236726, -36.756810740438596, 5.052131171924842, 147.07020262489533, 238.16465393183958, 202.7116436575833, 89.57109386696294, -27.55839852038136, 107.94430093087058, 216.34077471495104, 517.5967477093204, 0.8146992463993965, 0.9620884232863346, 0.9502267758762949, 0.9973069934801965, 0.8399600029055874, 0.8088346143592265, 1.0430564332576457, 520.0563812793878, 278504.58216827794, 36.60375554039588, 1037.744022610529, 945.9421761636455, 82.32441293960417, 1.7759965228222191E9, 0.0, 2026-04-12 20:22:02.845
0.0, 0.0, -8.62188340135829, 19.087343574421993, 78.77092609555041, 128.14540066126807, 92.87678646972071, 66.26488993624291, -48.67881485337958, 10.991884202515251, 113.51162424615687, 261.20706480250806, 315.55606879400455, 149.43547555876634, -105.18741843485378, -117.20633386165815, 95.28542500522381, 0.8612433483633579, 0.8177127104824423, 0.8245320681036159, 0.8820181869537809, 0.800293281070117, 0.8020226057516968, 0.9643998237277653, 521.3825638013449, 275649.964834545, 36.59443361623878, 905.6918187172768, 1004.3144520137686, 80.95473011091103, 1.775996522827223E9, 0.0, 2026-04-12 20:22:02.845
0.0, 0.0, -7.352576362371284, 8.649314495699336, 52.90306319357156, 111.56121410310581, 141.1565175275512, 215.23034526637792, 52.944663183106364, -70.43218844187959, 35.69416515874538, 85.18641861917534, 190.9902521371763, 297.87391924620374, 220.33743148123142, 163.67461798761727, 106.53229229906962, 0.9320627455182434, 0.9317294756080025, 0.886634596876194, 0.9539193880653759, 0.9975093555846913, 0.9042646419474704, 0.9920953339876721, 524.8492486721625, 238337.00183413288, 36.59218578151826, 941.3483977264615, 1020.5729805791286, 95.89779747295391, 1.7759965228312333E9, 0.0, 2026-04-12 20:22:02.845
0.0, 0.0, -6.462091037146067, -5.015201619873302, 23.58850751115893, 73.19015667682473, 151.64675549302143, 161.9071834303234, 134.64953605142756, 74.15107249910673, 44.32551741105037, -14.487838650399922, -95.62438115590999, 181.8922456124728, 289.50948107963995, 455.77057628457584, 241.92269787139168, 0.9090204752908847, 0.817300924668767, 0.8909370328578176, 0.8030958895153826, 0.9070561930595579, 0.9965102461442413, 1.0214017846065824, 474.50615884274373, 273636.998812782, 36.590839238472924, 1064.294493586741, 1076.994588357657, 92.66093658637297, 1.7759965228353336E9, 0.0, 2026-04-12 20:22:02.845
0.0, 0.0, -6.241703469921493, -15.212601884856191, 3.9037924345387864, 35.72075932244013, 96.09159293426521, 152.6790420672736, 182.32389684347828, 170.31817226225093, 156.15998581765209, 92.6410699582465, -34.81353607585103, -144.3107914075298, -151.49687178118182, -12.808253588950294, 115.57660273646812, 0.8664838401160238, 0.9102239181904573, 0.8425704498487591, 0.9847744819509981, 0.9831608796971535, 0.9063554419808096, 0.9729996238145535, 466.40708238178127, 260998.81670593395, 36.60340542386092, 1048.5343237143945, 937.5338501605802, 96.51802243271997, 1.7759965228393865E9, 0.0, 2026-04-12 20:22:02.845
0.0, 0.0, -4.154099132635139, -6.526066228442971, -11.724051729471839, 1.2801091030846692, 30.868904217019722, 80.01694950598402, 134.32069981872303, 224.19535049975957, 194.37280534677288, 219.14506619956506, 491.4345663390607, 366.79512350156335, 123.08460629921477, 67.63568588314787, 32.94841988576931, 0.825945894875807, 0.9433039733828857, 0.8723759565042537, 0.9085663503893394, 0.876008504723797, 0.9091607654683128, 1.0261430596951604, 491.3947942869651, 254478.86575112844, 36.590335555972196, 1075.77313762096, 1015.6310131515671, 88.1359598019835, 1.7759965228433747E9, 0.0, 2026-04-12 20:22:02.845
0.0, 0.0, 3.0790241651810497, -5.682549891479276, -19.38306369796687, -34.86830663926388, -11.740420384368349, -3.6340874073415534, 12.436202252378607, 76.52272839593446, 126.79021878728031, 179.25008839790195, 496.05957535705727, 238.69349490946675, 424.17322407937974, 305.17077371252765, 356.6074650268387, 0.8555077447741487, 0.8399292634248546, 0.9933744287179945, 0.8992585821278939, 0.9065762410521004, 0.9969418290080131, 1.0098852734719028, 468.52844361031686, 236042.67668579772, 36.595746156369685, 986.3744490894413, 904.7336592929674, 83.94280012876666, 1.7759965228466773E9, 0.0, 2026-04-12 20:22:02.879
0.0, 0.0, 7.6262882044016695, 4.432773376937572, 5.701893572860911, -3.0257970792992097, -17.98316220558351, -12.325375193985877, -60.717578683015205, 20.638174719320105, 29.258338022244445, -55.14264623627261, 9.282442561029683, 58.293650141908614, 123.02030626117707, 133.96570533854128, 212.30579906341228, 0.9700365334854287, 0.8083459494656968, 0.9561776686517675, 0.8301444828787254, 0.9184401902119076, 0.8408230925097488, 1.0322578170261916, 464.1846788023775, 263580.74088210467, 36.60669033017678, 1007.3015988638494, 1031.0249064349516, 87.42450261843373, 1.7759965228506544E9, 0.0, 2026-04-12 20:22:02.879
0.0, 0.0, 14.504665764095225, 16.98536542226901, 22.893359030449446, 15.793392004106295, 23.80619585814774, 12.892338062573003, 21.821729947499392, 8.024182679009229, 5.731151451636421, 34.98115845899787, -11.587869161244072, 50.463742852167655, -150.5777298208455, 97.31042044593477, 37.82733074394146, 0.8685380675006799, 0.8755395583106313, 0.906531920060094, 0.8044417196498764, 0.985762445214395, 0.8729639922456548, 0.9080606259015924, 536.0370944830955, 253525.473284898, 36.59239116457082, 1074.7340524739964, 911.2344345845665, 87.42222846500117, 1.7759965228546553E9, 0.0, 2026-04-12 20:22:02.879
0.0, 0.0, 21.424718180817692, 33.83580290815211, 47.243900191556214, 60.604289850476846, 81.25491342356061, 101.77022889469401, 124.46522691096166, 140.84331593415789, 165.6504175897242, 338.70251095154936, 215.8663084426018, 186.4662567853663, 283.56298758819116, 337.735628742425, 274.61915284263773, 0.8952423569940511, 0.8064957355868845, 0.9422486120510917, 0.8673141803669563, 0.8455310959786551, 0.9284634101398833, 0.9477239743021443, 468.6530636518627, 230747.0265362602, 36.598325574313876, 1083.8722888495208, 985.2217873362889, 98.58073045204813, 1.7759965228581514E9, 0.0, 2026-04-12 20:22:02.879
0.0, 0.0, 28.50666015613635, 50.58553386245387, 73.84554947528225, 99.53657951171111, 127.92579750279779, 142.07098554143388, 200.26505428244064, 233.25412330635157, 280.5454503101859, 439.6313543646437, 348.0873957660593, 366.21754382635265, 299.48413877065934, 341.57217208480563, 556.8144240654227, 0.8575739909311026, 0.995904501972746, 0.9526829870252199, 0.9240434313309785, 0.9566180376473051, 0.9042767530755002, 0.9859848119045006, 490.1525929600039, 277118.4945104302, 36.598443451781385, 986.1647292815215, 1044.7222845483766, 91.68667099088064, 1.775996522863155E9, 0.0, 2026-04-12 20:22:02.879
0.0, 0.0, 36.011429153370074, 64.0255957774693, 93.2859246698347, 105.95747954371225, 142.84628583066637, 187.74732102977978, 161.30698954065605, 147.54827094605517, 136.53244313071073, 186.19422164072458, 67.9526009627806, 23.46277361498882, 55.25132536310892, 76.3126695065977, -221.25139583518785, 0.8447701321853373, 0.9488654109563804, 0.9241203080530837, 0.9603041312461765, 0.874876899039036, 0.993149749147268, 0.9022199275295752, 488.74337514155945, 255657.80069914606, 36.608146494689855, 1097.4852380724515, 943.4381381275944, 87.83427811584579, 1.7759965228671708E9, 0.0, 2026-04-12 20:22:02.879
0.0, 0.0, 39.11868769957525, 71.0487283881531, 93.31933682017613, 102.12213345155261, 102.81309019057356, 91.73167560740052, 53.34017071600199, -1.6276707427147272, -53.232815225663416, -98.76143370492994, 47.18403694916529, -45.51431463087701, 53.05993067534136, 171.43890591776085, 552.3737469090454, 0.8372049265061544, 0.9250150634013014, 0.901835771825331, 0.8194645527184394, 0.954292712368383, 0.8088285968698203, 0.9082646832871054, 546.8832336078822, 244693.20393580524, 36.59518396394794, 1000.1171571099142, 1004.5416955460618, 92.13391672748149, 1.7759965228713768E9, 0.0, 2026-04-12 20:22:02.879
0.0, 0.0, 43.612684386020376, 76.46202790934763, 93.68084142842903, 79.16071759619872, 47.985763802195635, 0.00494835931537807, -7.775258810943839, -3.9392084292956184, -14.904193987566003, 64.0372657460672, 189.09261813247275, 272.3887561085033, 261.6014639965332, 854.5920394071798, 208.1594979620735, 0.8638155841913264, 0.8100851022546054, 0.8759812610454848, 0.9758777114024791, 0.9027393833730263, 0.9107998317636069, 0.9705306846682421, 459.37261339959434, 266315.41584947595, 36.590575332808434, 991.7344091101274, 947.0191497565581, 98.21116358978678, 1.7759965228753517E9, 0.0, 2026-04-12 20:22:02.879
0.0, 0.0, 48.68540197690163, 64.0002194451232, 61.15737072905647, 35.018914924432366, -14.217835267654337, -47.037919771010095, 20.007428266168077, 70.163722731755, 160.71832417865426, 250.03589157850627, 368.4815751719449, 217.9421936459663, 134.7259601082977, -31.924070053738262, -71.55354717703207, 0.8342655423050913, 0.9704890096373823, 0.8193629961792249, 0.9805171384078225, 0.992155636728716, 0.9630429554145005, 1.0091058527566734, 512.7316187903483, 258364.6716285009, 36.608359226562875, 922.0499027481553, 1057.8714866114133, 80.68532256677801, 1.7759965228793778E9, 0.0, 2026-04-12 20:22:02.879
0.0, 0.0, 50.21522068262476, 58.92624682835294, 38.58528173751716, -8.807806572324338, -5.565677288436518, -1.2740811068090068, 93.1721335959887, 200.86902861137355, 420.9851463290653, 199.1839143359427, 80.076738017548, -13.75867015442742, 33.19102401489995, -3.7102899965906886, 244.83787135164394, 0.9759703434574415, 0.878682931202412, 0.8793307149344859, 0.8621356747399117, 0.9795090996545118, 0.9757217589651167, 0.969079370697146, 522.3948196707537, 257704.0192498931, 36.60072304684211, 1028.6307290199286, 929.5609206522188, 85.64226806032543, 1.7759965228827815E9, 0.0, 2026-04-12 20:22:02.912
0.0, 0.0, 47.10417222474304, 47.60521754224361, 13.221942104037982, -19.74114619935837, 10.620358025810738, 84.89165871322244, 170.38699173582611, 182.69417292906525, 236.8606694399702, 14.139134690293915, 34.21132995851953, 51.15772954855893, 430.3486562023197, 262.306865823506, 355.70872113812266, 0.8999065755762432, 0.8460922655205608, 0.8908502574122632, 0.9596739726559719, 0.9938641354674923, 0.8009057428297178, 0.9571556590900249, 478.06254113434807, 269683.72164511494, 36.60075083218032, 930.6241767385853, 1084.8571481948968, 98.53226042006348, 1.7759965228867748E9, 0.0, 2026-04-12 20:22:02.912
0.0, 0.0, 45.74556258411201, 31.071187578174868, 0.5300517386112702, -7.804428294836654, 59.912466060448445, 134.12640239636363, 159.3573122268565, 87.4037367478669, -76.22605602807099, -33.369996609385794, 125.97252766696805, 264.1897622801688, 594.041645987842, 126.1377041513388, 27.805888649775966, 0.9693134741952082, 0.8089740064989878, 0.8811332409102389, 0.8764231955396439, 0.8045117035760476, 0.941753483629208, 1.0759260555011487, 536.7776008071756, 253446.8943062857, 36.60272521857369, 965.0982139002474, 1031.2023642845127, 81.41329829897698, 1.775996522890811E9, 0.0, 2026-04-12 20:22:02.912
0.0, 0.0, 41.264683910119686, 15.56084696220406, -25.182463353054004, 23.589441493380715, 124.61122269557062, 167.8496369035505, 84.05506254384944, -32.65570198564937, 5.589915822498398, 148.7991558601571, 237.63879841761968, 207.04103219188355, 89.21625996202815, 20.426102820552956, 158.92351270383514, 0.8408214250779186, 0.8247234667293125, 0.933742382839711, 0.9099897698601979, 0.9358563121046893, 0.8173587742782008, 1.0550022093645166, 536.6330116278534, 254651.63403020077, 36.60042767106707, 958.2478559447233, 969.9385912129031, 95.06858901980955, 1.775996522894356E9, 0.0, 2026-04-12 20:22:02.913
0.0, 0.0, 35.1923665760852, 3.650730565275712, -7.701816615883814, 66.61413237917728, 164.00456885142978, 111.64969997396932, 14.954919027220853, -34.63049103153341, 188.33464040029088, 340.04945954966956, 129.9339313839644, -94.54064465547717, 59.07578152615102, 241.12790841188968, 402.66778842636177, 0.9003742702584004, 0.8328671414178863, 0.8241281059464609, 0.8006496328142462, 0.9944764337313844, 0.981255833247567, 1.0963404156700245, 517.6728852460298, 275149.11418713804, 36.60024466013413, 963.8210796116798, 931.231820217581, 81.97259339756158, 1.7759965228994007E9, 0.0, 2026-04-12 20:22:02.913
0.0, 0.0, 28.904399426854, -10.107894132288159, 3.834716959699314, 100.71713081903931, 144.01619710546396, 20.11062013026514, -55.06308910064678, 232.84851661095536, 199.10534222619665, 110.21857478915422, -107.10978406152194, 95.25395449093816, 326.42783533848, 247.55484744046876, -78.25471579819603, 0.8190851001129638, 0.856319055787578, 0.8951730201434391, 0.8693974189269819, 0.8447405756246668, 0.9079788220415533, 1.0923392255007238, 488.0407223008018, 258450.92793660547, 36.605414886313994, 932.0075705557574, 934.4894436756747, 92.87293287229231, 1.775996522903469E9, 0.0, 2026-04-12 20:22:02.913
0.0, 0.0, 22.069549322393154, -7.998553235092075, 34.81437473012362, 132.53013993980016, 70.36061702835279, -44.019776712649076, 67.2848070152751, 396.13565127690293, 118.03325985847906, -102.07531294139716, 104.78263625007112, 352.26111095618495, 188.18320935792173, -92.41233734253919, 63.40283826093254, 0.9417487885288957, 0.8317189437505054, 0.8255837108044763, 0.8793792408134559, 0.9571715102143191, 0.8678293788113031, 0.9532212495114121, 517.0244829816229, 267042.147190549, 36.597571600778416, 1093.0077889283791, 972.2061765112318, 86.91506231080929, 1.7759965229069035E9, 0.0, 2026-04-12 20:22:02.913
0.0, 0.0, 14.76664152085688, -7.034326635528451, 60.096410024723994, 110.92336655718978, 1.5631915424150549, -8.653155445266734, 172.97568895801453, 155.74278709712567, -67.75725978076267, 72.46814933414291, 341.9416396131368, 334.1930114451077, -108.57315702869496, 175.74825036582436, 304.21371646843465, 0.9853249001346746, 0.9331407027216093, 0.8969881059390528, 0.8490037747169132, 0.9731518275350785, 0.8435699598128324, 1.0527887864052594, 512.9655924645039, 229528.13472795338, 36.60956663994283, 948.6432298703966, 1016.3661590663431, 93.44717246362573, 1.7759965229111176E9, 0.0, 2026-04-12 20:22:02.913
0.0, 0.0, 7.539094139145281, -3.957084853244595, 89.83252453012693, 77.84459991773033, -46.390283280694405, 74.86397619055114, 197.995888192331, 9.52304761728061, 37.56291863436179, 259.59133117227947, 180.19129900962747, -215.0785380791159, 154.94500966631924, 236.06109638162138, -35.001030819131785, 0.9946631366783721, 0.9423019480042659, 0.8113713306877771, 0.880566602641635, 0.9415350047163068, 0.9314386201401862, 0.9230583172163718, 460.5274350405574, 270334.7451476396, 36.60945727984483, 1000.4321855109306, 994.9588681791963, 84.28598659554785, 1.7759965229156892E9, 0.0, 2026-04-12 20:22:02.947
0.0, 0.0, 2.535954508330949, 6.8029966089906395, 105.24125268674914, 34.83081190685297, 1.5458441543995391, 126.18576042752646, 99.29323446913415, -16.1927152181799, 136.27340323524632, 273.89220653275, -118.46093551966123, 260.25758854988374, 453.508316801056, 46.70135379086322, 49.44758705656527, 0.8365021896464845, 0.8437848711639115, 0.8892008023627227, 0.8323133655007007, 0.8751889497769686, 0.9332224781148587, 1.0995183422470354, 543.5489035921121, 272413.5970927954, 36.59229327291321, 1025.1776779618808, 1064.368894916231, 83.79391767325805, 1.775996522918779E9, 0.0, 2026-04-12 20:22:02.947
0.0, 0.0, -1.7351827685985022, 23.585039525374498, 85.76890225386225, 8.193014119693423, 36.71897675529823, 159.1028103026532, 4.182638468197595, 28.029367690087717, 257.7256750413028, 26.08831574709943, 135.2558089892607, 326.78536678316647, 10.609627589570493, -35.46040632795197, 570.7217454205788, 0.8257465131121412, 0.8810367209391379, 0.9853669602915335, 0.9933313777710396, 0.9507272043958114, 0.968584163724803, 1.053416722542903, 538.9504109164666, 277296.88343249017, 36.599603883293135, 1008.7965154054217, 910.8464026555131, 82.23795288589699, 1.7759965229228396E9, 0.0, 2026-04-12 20:22:02.947
0.0, 0.0, -4.365353751415185, 40.65293240438576, 80.47929405287101, -25.409926840305786, 98.53674656158901, 110.70033295660389, 5.865960956216924, 173.68555494271502, 123.67061384370861, -97.09907724868287, 527.4475853566288, 121.52219266106054, -64.26984277465061, 272.80849108075336, 197.8076804728218, 0.8968493111549697, 0.8089726857701174, 0.9080724979540552, 0.9212776735036671, 0.9838891447441352, 0.8593821433860873, 0.9788375677181239, 475.6480745542636, 257995.20700815954, 36.59296118396691, 966.3656029038782, 976.2123594851728, 89.76383195591085, 1.7759965229267795E9, 0.0, 2026-04-12 20:22:02.947
0.0, 0.0, -8.008630418046245, 53.614696325155236, 54.19404461669946, 1.7799866384281344, 144.8698909588254, 36.91585934478008, 64.23168112702358, 174.79742544762644, -80.46322662082682, 156.50042921690678, 443.5358700037443, -112.19484492750937, 214.98622404460258, 139.83389670927724, -41.58971120585869, 0.987847685522426, 0.8698133962413636, 0.8720461755702326, 0.834864458681234, 0.9236465851493715, 0.9771970394443076, 1.0366098027840707, 480.8871733410988, 236928.66880989345, 36.600685213654195, 1076.172646438913, 988.0419798924734, 93.35749540222406, 1.775996522930287E9, 0.0, 2026-04-12 20:22:02.947
0.0, 0.0, -10.337360806413173, 60.74235674816997, 22.215728763308046, 14.447383205257893, 134.312014298877, -20.290365015002465, 293.64732758211466, 99.74424894762458, 25.81227209689817, 245.71647990961748, 31.744074972367372, 174.22484984076203, 276.2485679436384, -96.71127723264459, 478.6106355260455, 0.8169464647757485, 0.9898034390531248, 0.9899300978282092, 0.9765922740937981, 0.9369484225351749, 0.9814465894925416, 0.9926178908038295, 489.5533600932947, 272337.3510888489, 36.603524744753045, 1061.2003795346848, 945.1631191916517, 89.65405469565194, 1.7759965229348032E9, 0.0, 2026-04-12 20:22:02.947
0.0, 0.0, -9.007466332636742, 70.83534849232757, 6.332203750298412, 66.66013336480758, 97.314154111228, 12.272878049827028, 360.7924826971807, -61.2479792468867, 181.17587239978076, 123.47294147359322, 73.83470575574331, 369.601670962897, -98.60714067128009, 647.2597743360969, 133.57769511595956, 0.9302241208131464, 0.9320824443819672, 0.9128207121299946, 0.9108113812104054, 0.9820849773082273, 0.9719146902323189, 1.0229091170248632, 512.2735217871677, 274941.37032649876, 36.597325050081274, 1095.4552437365369, 1074.3209394437304, 98.39366766403404, 1.7759965229388032E9, 0.0, 2026-04-12 20:22:02.947
0.0, 0.0, -3.381317445710792, 76.97378528380628, -17.391856850644494, 91.05709141052452, 20.133157486333644, 64.41036499657056, 138.0043579999563, 2.6540402257504496, 258.15339655244867, -8.10130171429681, 231.88827586592063, 40.77467512679449, 117.73645606989697, 519.9406708527295, 110.24963997078052, 0.832918179828037, 0.871625213092319, 0.8150721284608522, 0.9111177302353962, 0.8260282221177403, 0.9455689399659887, 1.086608322863828, 526.7270064123385, 263434.23663699365, 36.60682291104705, 979.6121546491138, 1090.1699173607492, 97.84509847749679, 1.7759965229423552E9, 0.0, 2026-04-12 20:22:02.947
0.0, 0.0, 0.27147196013069674, 62.785006277162466, -20.599896233581397, 124.88526707647901, -15.015849923579879, 123.45493605787594, 35.07401071473232, 100.40008279799639, 134.05210248977556, 51.400752110758305, 267.54133337789585, -69.09738286326413, 354.18121816007334, -16.740032659268252, 343.6890757226672, 0.847785721413365, 0.8668169816327235, 0.8077374009360961, 0.9249522904661797, 0.8796328582947537, 0.9876436944470909, 0.9199015734578307, 513.236242307392, 241171.88047981125, 36.59865883739093, 1023.0983085093114, 945.7233408431171, 98.59206971347236, 1.7759965229473286E9, 0.0, 2026-04-12 20:22:02.947
0.0, 0.0, 6.617521623489582, 55.79876747100553, -8.283412251580778, 114.58075853491061, -10.759879376586142, 160.81044799051563, 3.8245957594681954, 246.36671875577102, -20.31564870787446, 446.07528523288096, -20.804281502455495, 193.14414030675425, 52.432973426810605, 158.18298469399087, 204.63744571872044, 0.9314828596254446, 0.9717499917545075, 0.9917102315043277, 0.8687174310668034, 0.8143544610286877, 0.9783275106121433, 1.0604636064747857, 481.372487616731, 229511.08853250032, 36.603742244848505, 995.5359578829265, 1013.6649884112403, 92.7384298022202, 1.7759965229513497E9, 0.0, 2026-04-12 20:22:02.984
0.0, 0.0, 14.378532554278303, 41.7458202141845, 21.210291712217686, 73.65449098306968, 25.99070615857159, 115.96020409144658, 11.04833118774971, 166.42908327732732, -33.13535816213144, 419.12914451407806, -38.13663081689219, 331.04352942721334, -5.169727872546332, 281.4069189052925, -2.9915692027896057, 0.8077558086026602, 0.8052316680378552, 0.9914098737693894, 0.9628769868721346, 0.8786273805052481, 0.9935218832535263, 0.9886471754076521, 541.6129034849271, 247481.7110724656, 36.60041007022689, 903.0614955102945, 980.5305371363306, 90.32610288615052, 1.775996522955346E9, 0.0, 2026-04-12 20:22:02.984
0.0, 0.0, 21.338834206388434, 25.962700092101997, 46.92661802665978, 38.89176158015133, 83.56948644573745, 39.187506936124215, 113.80742639932366, 56.4971164405423, 132.2293423053583, 19.364454727018995, 204.9592369104139, -26.64771997686003, 529.1020668853926, -68.5357278755067, 252.98360271904897, 0.956074600530039, 0.8594017778012627, 0.9888682609975782, 0.9445731567108265, 0.8192534845681144, 0.9724360240884772, 1.034351811927281, 469.15432865493966, 251315.27129020894, 36.59685439069075, 1057.786117712825, 1056.6184077241428, 89.11739966805983, 1.7759965229588568E9, 0.0, 2026-04-12 20:22:02.984
0.0, 0.0, 28.480912835727644, 9.507102461652313, 79.61421509808991, -6.815665491846559, 126.1323157717769, -66.52847133194965, 158.18260906886263, -60.60574514827417, 298.02136914653323, 18.936724400514123, 198.41095714756017, 63.49604557974956, 485.5847625944662, 94.67732371299822, 266.6924309101421, 0.8415355398540137, 0.9053795981012337, 0.8298218647490274, 0.9100750535458845, 0.9369223442062969, 0.915691051981422, 0.9042979309674161, 489.9636874964935, 242005.77240246805, 36.607551049242794, 1096.3018365179385, 1007.4201013245801, 89.04216254923216, 1.7759965229628856E9, 0.0, 2026-04-12 20:22:02.984
0.0, 0.0, 35.671508644846554, 2.3860421306662403, 96.9803447185121, -8.80692425237278, 159.33807295477342, -15.958450280944362, 150.7241978270273, 53.23305166230442, 112.69788674910745, 127.96445151137098, 12.177951681749974, 223.52350435759686, -25.159144840915246, 445.65447697590133, -163.3978903659655, 0.9907409558373098, 0.9908775121701728, 0.8273726117654485, 0.9404890955405937, 0.9120042589952991, 0.8021657849200508, 1.0218524947365302, 516.9325375718546, 278802.7571773728, 36.592221104465175, 1065.4442790841906, 933.8930374266537, 90.31845233726075, 1.7759965229670427E9, 0.0, 2026-04-12 20:22:02.984
0.0, 0.0, 40.54483895896952, -10.58628256293386, 85.94843455448357, -22.881055446722428, 102.78983213239889, 96.46840359345484, 49.83638812988953, 137.1158077165404, -42.28553408957464, 336.5493014581439, -39.39995716460251, 199.53834017821754, 78.31483804364139, 142.1503616876179, 252.49528243039543, 0.8859760427975042, 0.8091717601496308, 0.8336606351483626, 0.8444743125181211, 0.8907670719224177, 0.9278349951558459, 0.906093934098063, 458.48130563879033, 243103.47344859736, 36.59210256767571, 1094.3250032813037, 1099.8471361386974, 88.1538571915065, 1.7759965229710865E9, 0.0, 2026-04-12 20:22:02.984
0.0, 0.0, 43.52588314581883, -16.601680458096837, 89.69574142267649, 24.095249258032545, 51.762014095251274, 130.04292745622374, -42.208373210006144, 175.96571732648243, -16.652794904920455, 161.667666995443, 184.42929074135284, -75.06441396565856, 323.3803558067427, -171.90770820889725, 387.40004572426994, 0.8103032700065097, 0.8157789940872548, 0.8189658869379928, 0.9177981290320841, 0.8389365236092476, 0.8670477100919028, 1.005237158559794, 520.0699676018714, 270881.89320511074, 36.591318671827146, 900.8577735548719, 1093.288633170347, 93.15446131168504, 1.7759965229750824E9, 0.0, 2026-04-12 20:22:02.984
0.0, 0.0, 48.57459661765786, -8.726443780763312, 66.78860982705223, 66.07984723794353, 8.569235747356217, 182.42854059648835, -15.043451233797626, 126.18324664183862, 159.04602567071493, -48.963859985317555, 351.2354864289231, -32.460317208298136, 135.54744386689183, 194.08982235518934, -162.38854640493838, 0.9098676418271135, 0.8746626798410574, 0.8136470838858452, 0.8609343886504655, 0.9013108278023284, 0.9449206393956592, 0.9894774315673954, 519.1035119948302, 254913.82448946853, 36.60229691062927, 921.1548809820864, 1044.7201506324557, 82.40831991261221, 1.7759965229792497E9, 0.0, 2026-04-12 20:22:02.984
0.0, 0.0, 48.83632240589342, 0.3718880147911072, 38.41267722032132, 105.80513466141016, -33.45293870689538, 125.9851735784128, 90.19815307108811, -13.648251328150351, 465.85255918912173, -6.97789451019834, 98.60823517504456, 223.65337448862124, 69.68795434685725, 196.4433635478694, 489.94856675942543, 0.8900624780075752, 0.818063447522551, 0.8207326971682455, 0.9142684055352258, 0.9436067011295303, 0.9987367259258891, 1.0345873431524752, 525.7707606396514, 233609.4939774415, 36.594435004948096, 1066.6119493256715, 970.9609110267284, 97.74033564050805, 1.7759965229831054E9, 0.0, 2026-04-12 20:22:02.984
0.0, 0.0, 48.77672121205877, 14.874819896639826, 9.452127315708626, 103.26296858665233, -12.813532292083153, 54.47178349908721, 167.58431608963508, 22.44526462308454, 227.97735912682742, 244.02815665299377, -13.623461931866103, 404.4369277812051, 163.65447020538346, -85.84285583528109, 736.3533858321114, 0.9954709000730594, 0.99248397249476, 0.8831436383579294, 0.8589704151451277, 0.997981763404726, 0.882258607089342, 0.921720570719871, 512.217502237712, 259481.17712278946, 36.60710828586612, 1066.8766528900842, 1069.4316957153897, 91.2915552228846, 1.7759965229871056E9, 0.0, 2026-04-12 20:22:03.014
0.0, 0.0, 44.77868675442967, 28.76194429305841, -2.184158776711598, 123.4948219573646, 59.880168235573585, -5.112884742376451, 197.16142108055095, 92.45336728767609, -87.64931177021859, 298.9108789049578, 132.40232669584498, -65.33506023685956, 322.0426702442576, 159.28883638616497, -135.7526554134039, 0.8621761461696934, 0.8487278760860485, 0.8567815891304638, 0.8401551628272302, 0.9044481046431626, 0.832311650912908, 0.9336868623452391, 542.2185814353927, 245792.0977287675, 36.59226231921093, 945.1021656586834, 1000.1108767288724, 90.97399604038122, 1.7759965229911983E9, 0.0, 2026-04-12 20:22:03.014
0.0, 0.0, 40.129325053914386, 46.54645904501506, -14.077358937699486, 73.65628459411096, 126.80831355933724, -6.618576324082241, 82.92615317455174, 242.1802631511427, 35.57608819411715, 23.10627688253895, 206.49059809541322, 107.07686984225253, -64.2210878189781, 267.3042065925705, 159.0391949176498, 0.9468864025337985, 0.8279977240494916, 0.9859431322778652, 0.9688668524443907, 0.9787137052908627, 0.8016679379910178, 0.9490386931082367, 516.4079483483644, 261092.38323273283, 36.60920494715312, 902.9808803989472, 941.6564040949652, 83.11221765961365, 1.7759965229952188E9, 0.0, 2026-04-12 20:22:03.014
0.0, 0.0, 36.97820828085712, 62.36593660242537, -12.47880665187575, 33.531952130225974, 163.84146357303143, 27.00701674284158, 0.7698730957543063, 207.4200975143204, 190.4167070354902, -23.287513069776224, 135.13683621882325, 327.4560442863236, 71.35520787847479, 31.186957222265548, 521.3092846810367, 0.8345658884717287, 0.9471657440492175, 0.8432039697240814, 0.9062825308692432, 0.8052926909380961, 0.840524420523372, 1.0331365788683258, 476.59783902296346, 268616.70770462335, 36.60181944455552, 902.0924494253197, 1010.5182366073171, 87.96254121867811, 1.77599652299923E9, 0.0, 2026-04-12 20:22:03.014
0.0, 0.0, 29.27460270459204, 63.133758972881644, 9.7766280242626, -9.522046603401222, 121.76139423604674, 138.65004098453656, -57.71906795304275, 40.73785478733093, 198.887698502661, 109.57327380009141, -2.8708217567229894, 191.43974608349856, 244.12127319424758, 117.31397922614252, -64.79583862453848, 0.8215090837051364, 0.9746688672853839, 0.8560069399370697, 0.8224594478985608, 0.8408242792819781, 0.8076526264673477, 1.0188400961606983, 526.2674088227938, 232089.59912530673, 36.6036677285576, 922.5113470971564, 1030.858485150631, 99.0205087500872, 1.7759965230032263E9, 0.0, 2026-04-12 20:22:03.014
0.0, 0.0, 22.086410113734097, 78.34911957755932, 34.6979918073003, -2.958171101247139, 69.28545720219377, 174.8599144029477, 68.3293332320732, -66.18998123037252, 115.52563914926517, 201.0220934144619, 153.31345824321775, -62.12487224529795, 177.4494417837201, 757.023628148981, 63.90312389852498, 0.9880508279785906, 0.8824209270966089, 0.8870490775022544, 0.9364066194943522, 0.9320186982062272, 0.9227826811592009, 0.9587759777460353, 510.3644793263715, 264654.8955189037, 36.60783570128338, 1015.1174394147359, 1015.899138029895, 96.30246891872648, 1.7759965230072396E9, 0.0, 2026-04-12 20:22:03.014
0.0, 0.0, 15.1534640901535, 70.86199396629473, 61.92161957033294, -15.76577917350427, 16.30613863266713, 136.07769382970332, 146.01830188678542, 33.30574037812477, -5.290615235719059, 195.28647238119882, 469.02678153681256, 95.8037405136571, -29.40121823786191, 295.1971140891266, 524.8453063109663, 0.8928582346617747, 0.9299320129218728, 0.9741185473132709, 0.8864886804875753, 0.9856503426939448, 0.9541725097837958, 1.0438470520024319, 530.6584845064601, 267159.67637748487, 36.600123311852336, 925.9886194352152, 1045.5998263091208, 94.13889924054295, 1.7759965230112169E9, 0.0, 2026-04-12 20:22:03.014
0.0, 0.0, 8.98504197524334, 67.74642207674148, 80.60354806814696, 17.781612040027973, -38.54323931694853, 64.60514160387014, 151.82342922330284, 326.2896859347827, -20.468515251536317, -62.132784487275785, 159.6129119205723, 425.7520897419552, 153.11373338184848, 71.07612838950631, 22.58785779638788, 0.801886842925909, 0.9156670981458265, 0.8017850408526658, 0.9207692306565903, 0.986171305930749, 0.9406625284270377, 0.9650110838900907, 492.0007083831826, 277411.2261538961, 36.60394250640636, 951.1831983446071, 940.8444723547935, 89.2972869888022, 1.7759965230151E9, 0.0, 2026-04-12 20:22:03.014
0.0, 0.0, 2.20562518801259, 49.910759812880336, 94.17977556900681, 63.34961941125331, -21.567214167233956, 5.635486397960378, 106.35203510874487, 246.64187392855595, 168.33294500761355, 58.76831650706525, 56.79974313223274, 132.00964765771016, 371.9227789105847, 347.97516653161097, 54.608971602817746, 0.9106770911257961, 0.9843411335041067, 0.8152411193871202, 0.8541056411027667, 0.992494173100663, 0.8269462666763652, 0.9028155198937202, 530.4254060363738, 243450.19689305275, 36.602666349287, 991.2126466704315, 1084.6475531609537, 93.41415372863285, 1.7759965230189521E9, 0.0, 2026-04-12 20:22:03.049
0.0, 0.0, -2.3295542415228603, 36.38861751421068, 103.55900005637969, 106.07472917369152, 43.72850234959228, -19.064624609811133, -4.996447117869977, 137.20426379408212, 291.81576704524946, 221.15691853705482, 26.830026120009663, -134.70990126973783, 118.25571361354895, 318.2386397475258, 389.6142028100418, 0.9977445657901512, 0.9385330401357915, 0.8843788063575476, 0.9905549634342529, 0.9220196932368642, 0.8421171592017812, 0.9824560892948836, 503.8534927645556, 243535.90489350428, 36.59365841446623, 960.3753394538654, 970.4260330540532, 98.24607645957467, 1.775996523022962E9, 0.0, 2026-04-12 20:22:03.049
0.0, 0.0, -6.975164136183771, 19.568803595979453, 74.34219438113814, 117.77505644381714, 91.40449262909979, 16.782507345809343, -23.11538138380095, -21.613978417609914, 115.22473534184037, 202.74187020477274, 216.4092193870784, 155.02473363522185, -55.70328514389337, -131.62881107276974, 114.41180887878556, 0.9885902523251177, 0.8625932629387157, 0.948197568130276, 0.9436043025082929, 0.8043940938101989, 0.8064546027087434, 1.0520682240310308, 526.8893715721107, 231180.60011004744, 36.601671415350594, 1028.4479733790286, 1075.2383819496647, 93.56716142259997, 1.7759965230269709E9, 0.0, 2026-04-12 20:22:03.049
0.0, 0.0, -10.19662035933871, 5.991202633133888, 51.834262777413684, 112.2562576482375, 145.68875039405782, 117.27663145172663, 32.35305463504451, -32.131661679925315, -70.64001957442017, 81.43972653593573, 228.99301433969237, 316.37861770871507, 609.773835614938, 158.24724089974592, 94.27721546589635, 0.9787603153698757, 0.9395716260381964, 0.8500678024023673, 0.9776052535243337, 0.8701816967124527, 0.8178468230434653, 0.9579450758748694, 454.67448914364974, 275918.5408914512, 36.59561726449079, 1003.8938591287194, 1067.8309321697336, 97.6779719440382, 1.775996523030967E9, 0.0, 2026-04-12 20:22:03.049
0.0, 0.0, -6.8138717001093205, -9.866250501077225, 22.698199177751405, 73.93986302136449, 123.64170089179598, 185.02165888770995, 149.76067182548957, 79.82541141803611, 11.397124903611868, -62.70977694697825, -28.68572795342328, 106.83997907916881, 211.33497912820116, 271.29792283319273, 423.20599526461876, 0.9358104012224112, 0.8507625103822735, 0.8614223190352014, 0.9382840854002709, 0.9222395809406686, 0.9169389229012056, 1.0887725967727586, 484.08017368839216, 241659.8769726584, 36.59715053403964, 1081.454729600243, 1036.504864229563, 91.9272991651929, 1.7759965230349536E9, 0.0, 2026-04-12 20:22:03.049
0.0, 0.0, -8.398401216702869, -11.91828378580562, -4.2324123222755645, 37.13232651777442, 84.71455654339985, 133.22451441471895, 204.99976465651508, 212.94503419158235, 135.7152538307799, 194.39439837631176, -8.56008858113222, -71.67219839050995, -76.45335936099556, 87.87522361504682, 150.12822030245138, 0.9809295621840396, 0.9618600357431039, 0.803302818306439, 0.985640775437398, 0.9604094540888714, 0.8356928228071411, 0.9492541873836617, 470.79796767784865, 259981.6982385609, 36.5939946452048, 919.0048283427512, 1000.0120230869452, 95.33632144790197, 1.7759965230390792E9, 0.0, 2026-04-12 20:22:03.049
0.0, 0.0, -3.205639624393413, -5.737673147903138, -11.708689209702797, 2.1144254445182327, 25.827405938774397, 80.05811090057354, 130.4443472604946, 215.57568828548975, 171.51140724234585, 473.3225953828462, 310.79978069139094, 178.14976178037705, 133.6980359687947, -14.753477094475585, -198.3062154691945, 0.8316003693390814, 0.9793513562283226, 0.837303278870324, 0.9836728583133284, 0.8013430024624254, 0.998018000791402, 1.0723212065061773, 482.6436470724259, 269407.9849675941, 36.591992280257635, 999.5351436887032, 931.6304152210282, 95.21068097289196, 1.7759965230430548E9, 0.0, 2026-04-12 20:22:03.049
0.0, 0.0, 2.7775478274632803, -10.53640574345443, -21.318121868403658, -22.413629709684187, -30.82192589571261, 9.336314654567808, 11.316527600868895, 71.04102150957299, 135.5458898708193, 204.6564776799596, 275.8594158013216, 303.66480250789584, 302.9225528466467, 388.04180825473725, 666.5967514196184, 0.9452120337180453, 0.852845182364736, 0.8851358299545715, 0.9980933899450558, 0.8968265164399128, 0.8195890857012467, 1.090841273921066, 507.516621825975, 249025.44172211946, 36.59979712321716, 974.161610131078, 1091.9158367127197, 96.73104449488996, 1.775996523047052E9, 0.0, 2026-04-12 20:22:03.049
0.0, 0.0, 8.41672010048306, 3.458834668393127, 0.28890364264029245, -11.111369327203768, -20.845733589506025, -48.90386001034078, -27.210399108093142, -74.16631791196022, -50.23905158375416, -30.021450983960676, 45.99183251780916, 57.07488572811414, 53.0612749606056, 128.2849999053111, 355.39260393716586, 0.9437075536473446, 0.8687563866842127, 0.9882527081711207, 0.9440176907427057, 0.9407318850988512, 0.9056677065060729, 0.9507305180436312, 463.70919258051657, 235370.59151229478, 36.60527768952759, 938.5980782589603, 959.9096424401685, 96.56479588920918, 1.7759965230511987E9, 0.0, 2026-04-12 20:22:03.083
0.0, 0.0, 14.537169434136311, 17.150818919990783, 21.67757868253514, 16.599623121885152, 22.02090745507261, 0.19864572632685906, 39.21454259677151, -25.773013729101635, 35.68639199668618, -62.165862909946014, 9.026709689805855, -79.41197481382449, -82.98399529612558, 52.37690364004348, -84.45164186916065, 0.9455113904151976, 0.8755988803659907, 0.8755202642720675, 0.8479736296606443, 0.987702813002585, 0.9438961127543034, 1.0980046651682187, 509.95278490727515, 246207.17610038284, 36.60137187892158, 932.7803609616765, 1003.5229974640616, 93.33383317125902, 1.7759965230551815E9, 0.0, 2026-04-12 20:22:03.083
0.0, 0.0, 21.544693113589258, 33.96370155018898, 49.1824619778467, 64.7806854308203, 75.25067252675657, 102.57754964782097, 224.72473006871144, 135.00552999422263, 165.4355019036681, 150.75644369193782, 178.82830688859124, 182.79308622142997, 337.6018313502445, 204.67434798514194, 408.15284977987994, 0.8850080453451938, 0.8672248988232562, 0.8854566013149551, 0.9322798820690833, 0.9566922801082097, 0.9094413230734236, 1.0095523402502316, 545.6368110018302, 240323.25187118666, 36.591150323356956, 941.6764216991556, 1080.1425547535846, 96.42788815222426, 1.7759965230587957E9, 0.0, 2026-04-12 20:22:03.083
0.0, 0.0, 28.18257674601112, 52.035966612910215, 72.14434547611998, 91.25486270270801, 111.61383119259634, 191.7207442431755, 374.9524429518018, 176.95168647323095, 255.70147968357708, 313.7175526286073, 304.364700837331, 582.4770248755219, 339.62232010333906, 307.93081373895404, 240.4485866991161, 0.998610427960246, 0.8550818834529046, 0.8529571684747906, 0.9432208431679566, 0.9371313012540984, 0.8792978137869805, 0.9572241257735606, 470.1783310373249, 257241.04252546828, 36.59295134517417, 1001.920795824548, 1005.2754060189612, 92.24132379924744, 1.7759965230631428E9, 0.0, 2026-04-12 20:22:03.083
0.0, 0.0, 36.06416946520649, 60.96491674815857, 81.47703971042446, 121.81562135367722, 125.24767647982256, 149.9091268794737, 177.31228907566947, 152.86418860142737, 122.66649776200819, 84.68538218537242, 41.54213667228066, 56.45411225841721, 37.90212348508605, -222.30006487393007, 79.99630748178535, 0.8582161289525554, 0.8434943488532342, 0.8810075629714302, 0.8883897504484537, 0.9021938367798176, 0.9746801978881939, 0.9752988698454966, 543.934390075, 228631.54404000458, 36.60618693359666, 973.7009668694856, 1081.2725862109276, 98.12478329271751, 1.7759965230671532E9, 0.0, 2026-04-12 20:22:03.083
0.0, 0.0, 40.272582427802554, 65.93910297450435, 93.62803350696905, 125.34369774466201, 108.62761072653805, 93.69380670250115, 64.39327485038984, -1.5443422074462916, -56.938793376080184, -91.93374230268358, -97.0053000455068, -3.3174613819358854, 54.11929118420977, 328.3134181096011, 328.7942446893927, 0.9044090964424542, 0.8440667388724008, 0.8589721237761487, 0.9723500390007257, 0.8335090686305687, 0.8531181449883085, 0.9999147460382504, 535.9535141700413, 247361.91499714428, 36.594035175362976, 916.4886648252373, 960.8312199284749, 89.0928184403081, 1.7759965230711076E9, 0.0, 2026-04-12 20:22:03.083
0.0, 0.0, 44.59321446820982, 66.77553803737712, 79.7514311379454, 84.74021282354502, 49.59787435222054, 23.992087645760968, -51.57706177293568, -42.97859426708024, 48.732344898665175, 54.86083795183217, 142.91028752440312, 322.5040254131519, 394.03960634454825, 523.8132373527308, 207.24815495910397, 0.9953304334094554, 0.9516611320702869, 0.8248837265463183, 0.973536870448375, 0.9601250716883735, 0.8084336276808843, 1.0423131926062323, 459.27450486667186, 242844.52532958862, 36.606853883865085, 919.433536526079, 979.8145057313242, 95.36957125030835, 1.775996523075182E9, 0.0, 2026-04-12 20:22:03.083
0.0, 0.0, 48.72331438895617, 63.92394791843966, 67.46316252084162, 36.90031974869946, -7.638790981616069, -49.30226945041565, -22.68656903233716, 63.46212697979225, 148.61050526001955, 184.6274026921723, 249.2891507634028, 279.7704529346939, 135.63482884072425, 45.20974791169523, 47.920367490821334, 0.8881364658313179, 0.9925824516075209, 0.997223936788746, 0.8832788993349326, 0.9431789121889814, 0.9490032314637579, 0.9007120146932108, 503.54917956976476, 252446.6555317912, 36.60521543509684, 923.6347090324587, 1080.631684772465, 92.66773518533343, 1.7759965230792649E9, 0.0, 2026-04-12 20:22:03.083
0.0, 0.0, 47.899502038909944, 60.159811067237214, 38.598186786260605, 3.520855505088015, -6.94726113884569, 4.749822598043195, 87.88968768433377, 234.78149125289085, 458.92393883909756, 229.54779394391255, 168.958896138038, -88.79696212445847, 56.10684999453514, -31.224233518631507, 183.39763904181677, 0.9967546109269291, 0.998361438668712, 0.9543983783217255, 0.8052577741633189, 0.9471236231392631, 0.9344175346789113, 0.9102334994286349, 546.6390931591585, 249649.59355868216, 36.607893677763016, 1029.461768271159, 1004.3900190571624, 86.04152353888843, 1.7759965230831964E9, 0.0, 2026-04-12 20:22:03.083
0.0, 0.0, 47.41601652448092, 45.53764139331493, 7.716660784845686, -18.582518178060113, 2.48283163677263, 92.10740926800425, 178.66553537305387, 167.44957999153718, 234.65454081698795, -26.658899195348596, -81.95558375492902, 1.435605100667857, 171.98138718197302, 381.2552679342051, 453.4590832973289, 0.9472598385569034, 0.8523763813164082, 0.8462210397393, 0.8043333970463279, 0.8363103364151743, 0.8066895256247137, 1.0473108165972946, 484.22836824550495, 263208.88351275976, 36.60468822869478, 920.5708069417961, 1086.1135432187427, 82.95899438682828, 1.775996523087218E9, 0.0, 2026-04-12 20:22:03.115
0.0, 0.0, 44.077836490084294, 30.932334482355465, -12.549485786479671, 3.6340957394116487, 59.886941014463744, 141.7496367132056, 180.9948418045733, 87.23487691510499, -83.53918238053828, 36.146271246833095, 243.4677316645709, 216.007670855423, 623.8033637412716, 132.12667342911334, -55.6959931332392, 0.9671962370233157, 0.9648330758962623, 0.9370819910230815, 0.9005315142117344, 0.8698494198863652, 0.9583279391375376, 1.0931153277373074, 495.66424317468545, 250824.2016237292, 36.59789257074902, 1034.5634094350164, 1068.5013858319019, 98.2729783528372, 1.775996523091251E9, 0.0, 2026-04-12 20:22:03.115
0.0, 0.0, 40.9782133951565, 14.330811155688265, -14.786982866133819, 23.04347320367653, 113.7781835128018, 166.5251174777464, 83.0209272138694, 23.806015666869257, 39.61830436616894, 142.36563538246276, 229.5824690158915, 214.67948385813804, -19.35027020024461, -102.35468583375393, 159.03060679626503, 0.9026456146923855, 0.9180664126974013, 0.8464320780906617, 0.8616010242175959, 0.9201510812804735, 0.8025602847369688, 0.9336990188949004, 537.5153554529098, 253563.73084145953, 36.59155377917772, 1022.8288027945815, 1003.8485883126332, 89.49801380731944, 1.7759965230952542E9, 0.0, 2026-04-12 20:22:03.115
0.0, 0.0, 36.032405105364454, 1.8898834336463928, -6.695519069385952, 67.458607622904, 121.57676560547425, 98.43894704373403, -23.378134434685492, -2.6962327736299017, 186.10897717683224, 272.55249893252335, 137.72197262614267, 20.65192804288789, 114.41181347357022, 198.29966071443258, 224.52091467144783, 0.8292723961902206, 0.927730491478915, 0.8054722998789436, 0.872914560632869, 0.8513372263704293, 0.9925855487832517, 0.9310579485016255, 466.55726975646377, 232369.17336425252, 36.60630753366648, 1089.5664065997105, 915.1402883386777, 87.63156286790777, 1.7759965230993605E9, 0.0, 2026-04-12 20:22:03.115
0.0, 0.0, 28.93670589487806, -9.071832677395761, 4.4440380028453035, 101.02670739829689, 127.31260017472233, 34.575972434438214, -51.33194386430094, 110.76627305026321, 219.7609989328804, 110.24055311350418, -31.130673441937205, 74.65630023963371, 203.71668288133682, 294.97858252606966, 53.93072840875453, 0.8202511521055131, 0.8534013632214373, 0.9679862967043037, 0.9675565834767182, 0.8508883643873482, 0.8302874062220479, 1.083268112616512, 464.1710529578304, 262051.027868071, 36.601548925007094, 993.3480021242133, 987.9652449100498, 92.04148518281133, 1.7759965231033561E9, 0.0, 2026-04-12 20:22:03.115
0.0, 0.0, 22.011179778097386, -9.978776344314312, 34.98834086718788, 122.01633647933726, 73.53681544122524, -32.39494911246024, 61.110021691862656, 222.98074033046782, 126.47037299563317, -79.52993249258463, 106.04460316105146, 367.7792505962141, 173.67666987099605, -89.09887541542005, 198.54222717674645, 0.9953758562519447, 0.9431849194042706, 0.836423558499062, 0.8323193250499655, 0.8397594370274223, 0.9140892428843129, 1.0896609244387672, 456.4173271011939, 274624.2603510461, 36.59244359595118, 925.3870467749045, 1019.9103685900584, 97.91386838020676, 1.7759965231073513E9, 0.0, 2026-04-12 20:22:03.115
0.0, 0.0, 14.924546266355529, -13.756734691446546, 63.47899303141182, 98.82061193642596, 18.31741101650003, -24.920405105715716, 192.78552915794558, 155.17293794697576, 9.472183495847432, 60.56376426725028, 256.22107049682677, 153.2327650315091, -174.0695236996429, 168.31110397881986, 798.343176205309, 0.843445848914609, 0.8122792260584875, 0.9414952949790819, 0.8762675725338571, 0.8608742067261371, 0.9220395216473151, 0.9457662038199175, 462.79297219541337, 237537.66041211007, 36.608905881335176, 900.620040391544, 955.115716332651, 81.28853284458673, 1.7759965231109293E9, 0.0, 2026-04-12 20:22:03.115
0.0, 0.0, 8.908628087571374, 1.5199350670458287, 79.24972149060524, 79.86191045800012, -23.344019438535, 73.30781281424784, 226.8577327094098, 33.8363694029031, 20.42972817627465, 285.1235337908764, 168.8777802943244, -134.12641792458322, 187.4098349333777, 256.8357994996754, 43.5512514224381, 0.9760664994036533, 0.8368638993250213, 0.9209043621561427, 0.8428903245992709, 0.9732077455754672, 0.8702635476026332, 1.036686051843246, 496.7285966892748, 262341.27296616224, 36.5933620465263, 1098.0150143011854, 946.6430452567935, 99.9265389833336, 1.7759965231151588E9, 0.0, 2026-04-12 20:22:03.115
0.0, 0.0, 3.3795978785899443, 8.693349705062712, 104.99003576008789, 39.16221989601428, -10.737031180059944, 136.8663369870151, 119.03462828788105, -52.67737498847464, 187.2749382800226, 230.68474579889914, -56.46225522508766, 122.75128983678454, 293.2159513681412, 9.020005339615551, 80.41237968676687, 0.8453576009752122, 0.877168275226251, 0.8867986384812852, 0.9422132388570937, 0.8181304440465019, 0.9837657639769496, 0.942460072117895, 529.6514953731336, 270008.3809113409, 36.6044559090364, 977.1290017143517, 1023.8930399084722, 98.00329243934448, 1.7759965231189485E9, 0.0, 2026-04-12 20:22:03.148
0.0, 0.0, -1.581685291624808, 23.473979589188126, 84.55660716262389, -2.5314489727673504, 36.63802697464193, 183.9862247761563, 9.169744268318965, 105.31143493850453, 207.4737780576, 70.6606702582998, 77.5467334560443, 212.5558193359924, 105.4243760228212, 57.51973774130933, 298.81406614017953, 0.8105656730069767, 0.9441084144287727, 0.8274890771756436, 0.8020445706076139, 0.8576026787417106, 0.8235607309745709, 0.9754502652560502, 454.8391545429839, 277304.4774197392, 36.60609126383204, 922.9611507111415, 955.2751959068573, 94.66298144027482, 1.775996523123021E9, 0.0, 2026-04-12 20:22:03.148
0.0, 0.0, -3.658834222522735, 40.44572822382696, 79.35891521115808, -27.883046196502747, 110.53269952924536, 98.64367661323757, -3.576111121921855, 173.39003360080673, 128.96597000998133, -66.53281141800454, 280.15937636019584, 111.03591853178631, -89.24831533489643, 217.83922373667838, 132.05610412535205, 0.9231738294113606, 0.9373916762685032, 0.8501526704465359, 0.9659663071502725, 0.9200305622241237, 0.88917732188646, 0.9757002391093165, 531.7131533530716, 232073.95010538012, 36.60704507493131, 1022.5603795552394, 941.9868296057352, 93.71825941138077, 1.775996523127016E9, 0.0, 2026-04-12 20:22:03.148
0.0, 0.0, -7.821410998219427, 55.25103718682981, 53.4522245335098, -11.187859923085995, 149.18955191137835, 31.752092222615552, 34.268349624839146, 259.25220235230137, -23.022598048167083, 337.52834520718164, 238.10738787328194, -104.74442561646563, 317.5600694772729, 294.8962476148339, 76.59308212316574, 0.9384858297747823, 0.89719564544809, 0.9377698551760844, 0.9030636918385196, 0.9521751490717952, 0.8859026206661899, 0.9679009067402259, 535.6879221599404, 275626.8824912074, 36.59909256169691, 1071.9511962969925, 970.3708697967367, 85.37671117178765, 1.7759965231309783E9, 0.0, 2026-04-12 20:22:03.148
0.0, 0.0, -6.940943937328086, 61.09843602058848, 27.59895611111909, 26.82200242323024, 122.73528310661905, -12.336258047438108, 124.32865667264724, 100.68173397308921, 8.636832584322988, 335.3584362909071, 48.32041439187448, 178.6285977947394, 190.74858131382297, -130.62626505563298, 242.11269950873435, 0.8505449994327947, 0.8051805875387725, 0.8706132126675644, 0.811172509144767, 0.8685409591672528, 0.8514830621133456, 1.0598561819636731, 466.67907627520714, 275410.54110683553, 36.605473138612965, 914.797535563729, 926.1836365568273, 82.11455664041685, 1.7759965231348865E9, 0.0, 2026-04-12 20:22:03.148
0.0, 0.0, -7.501398725547229, 72.75882761768048, 1.991418776755637, 65.5681335163268, 95.25661318817058, -22.554236617425914, 178.4453313290536, -25.162323088500145, 161.79112642498018, 123.07854570840541, -21.66267496579067, 671.5171033347385, -114.2271194470948, 526.4924007001086, 143.9762332368444, 0.9692197383489588, 0.9182495776719942, 0.8258497785820031, 0.8778610851799243, 0.9814410752124815, 0.8908975734434408, 1.0453096968067996, 456.8703839353158, 229601.6588907782, 36.59109674928705, 980.9544773627907, 945.3260090994381, 85.43523006962614, 1.7759965231389232E9, 0.0, 2026-04-12 20:22:03.148
0.0, 0.0, -5.267510706034216, 77.20880320677128, -6.865447222730573, 99.11950104917689, 20.564659387510545, 62.066216821454475, 144.63819935859135, 3.1668304882256564, 291.55367095395627, -16.581462649488273, 241.62213497558128, 103.52250927612207, 128.1224158664623, 261.07109379339903, 100.8850911004846, 0.8576822373595608, 0.9453164885269326, 0.8657477739746716, 0.9463345761362799, 0.9362802713528865, 0.9852037333998694, 0.9616122996492527, 459.3497448458632, 239496.51899327952, 36.59945268665564, 1047.006486266748, 1054.4107257855228, 92.19898093362039, 1.7759965231430588E9, 0.0, 2026-04-12 20:22:03.148
0.0, 0.0, 1.0185893449716943, 66.97498537634827, -18.124517522352875, 107.4013694064646, -10.888721813440085, 135.252470113234, 23.382280809412187, 109.44221877708148, 129.79317894247282, 1.5332601669873611, 279.94607546837926, -141.6857486275548, 282.9161869394466, 17.654142032754095, 332.71822324645086, 0.9139265822546673, 0.8223443230031576, 0.8160804402926976, 0.9063753103849636, 0.9117291996357769, 0.9154609898158294, 0.9811561402559813, 471.50313488085845, 277662.030793986, 36.60416002156128, 952.5596997696406, 906.3621157504867, 93.68579818850694, 1.7759965231470268E9, 0.0, 2026-04-12 20:22:03.148
0.0, 0.0, 8.590916793716705, 53.43043949647044, -3.6232142726310954, 122.22614489080834, -2.356035779311945, 150.57460503479567, -63.150714225337595, 250.07616644334172, -45.409288167866464, 180.75260969279418, 26.28445083231459, 236.74144318045938, 89.52407416872092, 171.76546130605388, 177.73925283008683, 0.9736970671048862, 0.8324847375753407, 0.8900652169337031, 0.8683890098120832, 0.8769143797454737, 0.9941066267584456, 1.040574097612176, 458.24451786318417, 240891.50825440325, 36.603490288541856, 1015.8463439679193, 1088.1399158977754, 91.87375624606547, 1.7759965231508448E9, 0.0, 2026-04-12 20:22:03.182
0.0, 0.0, 14.241591034779983, 41.62366572718197, 21.50660065638342, 81.26977653323631, 11.940332234166753, 113.57346951962506, 1.464435852771544, 174.55436662880984, 14.467490794102261, 259.51687168674476, 50.7507572675721, 243.89355801503515, -34.76339229806581, 431.9377035213026, -12.501463474640644, 0.9730246407318522, 0.8381122944123343, 0.9425269469980752, 0.9523534161142772, 0.8777483350508439, 0.8666552209279247, 1.0911736740793483, 450.38326001520494, 233294.31946613156, 36.6036554633786, 905.5915505288657, 1070.4110428908546, 95.44934719604271, 1.77599652315484E9, 0.0, 2026-04-12 20:22:03.182
0.0, 0.0, 21.4165298749938, 26.27149803397758, 47.11534639887445, 33.01760736335794, 77.96262947330504, 32.19298093288504, 126.57335690488944, 51.771714701036956, 171.5854503221197, 12.810213032578872, 194.7051435156509, 72.41184561531836, 625.1634485080303, 45.1348109674732, 407.5276509266837, 0.8288205598033548, 0.9824320172904554, 0.9998635838680009, 0.9107852426959885, 0.9927169747522046, 0.8958669131403022, 0.9155113126078608, 470.008803684192, 248003.94387457037, 36.609735880629536, 980.0814121435628, 985.2073404034749, 96.49759002540173, 1.7759965231583495E9, 0.0, 2026-04-12 20:22:03.182
0.0, 0.0, 29.02751138556983, 11.377251046075461, 79.45813712880485, -12.559110628842411, 126.26221156022893, -10.282052876238623, 169.69897895093214, 0.02065968693194975, 309.58059987372224, 5.643544459587858, 532.3458634854575, 29.811234620244022, 592.6177301269397, 120.20598463113231, 543.8265878186371, 0.9920675896612333, 0.8911213137262759, 0.8332510173875851, 0.853244502719812, 0.8757433150104246, 0.8487664154519733, 1.020280116542966, 495.63940543929294, 265455.0020520242, 36.60194802220925, 922.9759785062823, 984.257226029276, 81.87348124516149, 1.775996523163362E9, 0.0, 2026-04-12 20:22:03.182
0.0, 0.0, 35.64469118863244, -0.4810750709533913, 98.38463003100244, -29.893700408180877, 151.21782403240707, -34.929209713444465, 174.1124860429796, 23.366129685317674, 123.78630107828994, 120.52780200743396, 130.11766095440316, 181.02835877899818, -156.70409880220495, 429.41834035133974, -279.8751503576287, 0.8359290866414616, 0.9452014914331343, 0.9965550737997765, 0.8296354618901199, 0.9600463891977388, 0.8347048221654552, 1.0392482003374945, 488.16895528717424, 232893.0403846971, 36.5953038638584, 1040.9986419612865, 973.3022817645816, 85.3809337179868, 1.7759965231673615E9, 0.0, 2026-04-12 20:22:03.182
0.0, 0.0, 39.1342381306443, -6.632632774088798, 85.51567036562261, 0.8910591891335073, 98.96199613939834, 56.74607662351691, 47.91012011451589, 135.1425377344433, -36.16731921150159, 192.59330180605815, -26.978041920115004, 303.62035699107423, 105.6116563836883, 143.41687753763466, 428.39051966575954, 0.9117548021442713, 0.8850024272067604, 0.9868464692082378, 0.9109202202956453, 0.9999548155220684, 0.9276128926765547, 0.9739140399276053, 542.4406656962365, 262971.893767945, 36.60240093579443, 900.2443234208484, 1041.8456203134165, 90.67342783581721, 1.7759965231711335E9, 0.0, 2026-04-12 20:22:03.182
0.0, 0.0, 43.121198946786976, -7.445403369588725, 87.9530514943277, 14.886604660859255, 47.03206327923165, 152.1166211449558, -13.16160424419921, 269.54838324927215, 25.7114840622324, 142.38667471693714, 163.5202480243746, 40.74261460985248, 395.348040691896, 47.803590067349475, 291.15543350784134, 0.9866429274863134, 0.9072093487014642, 0.9821441412370696, 0.9111665693625882, 0.8121341356842867, 0.9628566350483344, 0.9446727150096674, 454.4351746600332, 241328.47970662787, 36.600823979529046, 1061.7874082077813, 977.7814548659192, 87.107078626916, 1.7759965231751645E9, 0.0, 2026-04-12 20:22:03.182
0.0, 0.0, 44.925571558196395, -12.2084295393514, 69.81676914868683, 62.98251313077142, -8.07805310711153, 156.1574178033224, -30.72917403053276, 116.14645514196437, 149.5600715207845, -101.03680520637178, 336.70132180530345, 27.104783993943954, 135.42683903996385, 329.9051438974174, -113.56577384624603, 0.8662692516517345, 0.8901555848343534, 0.9289178557170784, 0.846092052971347, 0.9201143825354142, 0.8428523359510577, 0.9939448582080416, 472.5957682527368, 228645.85874112564, 36.606512716518615, 1045.1254455168182, 925.7039942114515, 85.86317785047028, 1.7759965231791406E9, 0.0, 2026-04-12 20:22:03.182
0.0, 0.0, 47.52279476162373, 2.584934699564222, 38.65238928658338, 98.55447038837988, -22.457451215101713, 142.1692454062051, 192.2267352831516, 25.15088633418273, 417.8540873406093, 67.66919174635063, 97.65871193647868, 289.197548211876, 79.90011902633046, 263.3570307145936, 241.80348483741338, 0.9859568433992484, 0.9049417732593344, 0.9536276787601977, 0.9892647890552978, 0.8344027677331, 0.8130127605611603, 1.0350305755143265, 450.763385398957, 238699.60200674227, 36.60179313501197, 928.0743344420672, 1035.0754541136025, 92.74590175348256, 1.775996523183084E9, 0.0, 2026-04-12 20:22:03.182
0.0, 0.0, 47.338651365603695, 11.619634636708938, 9.284273639932007, 128.50418301026235, 6.678076999700458, 54.113019525250564, 386.38680645712304, -65.34513171632972, 245.15819557532893, 168.01492713418764, -129.97076671270582, 260.96085840147055, 177.21019182917723, 47.953408898708744, 247.06040232271312, 0.8074488386760125, 0.881591429417964, 0.973650694145502, 0.8055418266516291, 0.8271307210730136, 0.8266371047558128, 0.9242401357444332, 500.69550630646734, 252299.81269074077, 36.593910955911376, 930.7555749322454, 1033.3335470237473, 86.2077019188096, 1.7759965231869116E9, 0.0, 2026-04-12 20:22:03.215
0.0, 0.0, 45.13121408409911, 28.98926851839721, -7.500959505479045, 98.45195381339116, 59.856862289034744, -5.703360652571547, 189.20932543338137, 92.07648096177779, -25.778745567362336, 241.17708857658454, 123.59045279041429, -39.01810589174792, 403.08805575565117, 170.3623490901757, -70.58885962256068, 0.8445704639198411, 0.9245891291352871, 0.8875668471451941, 0.822698172780283, 0.8831272162357416, 0.999483520958177, 1.0692303593018382, 487.1701655305271, 259193.71026448888, 36.593899633132025, 1018.2259675586471, 940.8302768063594, 90.42375565838309, 1.775996523191032E9, 0.0, 2026-04-12 20:22:03.215
0.0, 0.0, 39.17226680701121, 44.932100479059436, -15.180240983848243, 75.29039765105912, 125.47097140675163, -13.587538496607223, 82.59631258438061, 169.70739014024454, -25.851546225517126, 29.946255040271666, 364.0140849854255, 41.18808439394002, -42.31660503246357, 778.8526277054431, 159.09181065188898, 0.8866409199821993, 0.9207457236463595, 0.8354889235291679, 0.8660476421859883, 0.9223071801206998, 0.9750316032148926, 0.9703418516165044, 530.0515883748457, 276003.754878386, 36.5956735979447, 907.7075293792935, 1035.6425986420543, 93.11233908040722, 1.7759965231949124E9, 0.0, 2026-04-12 20:22:03.215
0.0, 0.0, 35.75710080728808, 60.957614171234184, -7.5657290075975965, 37.412191114694345, 139.95257600898572, 48.00041152334049, -49.44255974047786, 199.00961058083698, 167.98421664395522, 26.28406605112309, 131.5174144362549, 268.9195704571881, 46.031587448210956, 100.34028325177144, 263.15800691737144, 0.9503161265265608, 0.9345869495718017, 0.8407508981138766, 0.8870839618216942, 0.8842967610627746, 0.9456567302207716, 0.9979176491893531, 511.34305277546974, 232966.31885612902, 36.60687430110236, 1011.4309774781765, 911.0593577547471, 89.93162136222436, 1.7759965231988976E9, 0.0, 2026-04-12 20:22:03.215
0.0, 0.0, 29.681686440770857, 64.13196158139709, 14.060670476700913, 4.727395688467837, 136.440551049443, 122.01016068566948, -34.29625035334226, 53.6114972834588, 229.34141597857297, 109.52472593659134, 36.992029831200384, 190.98085561341162, 300.8570198596343, 85.29641389326906, -149.78871422931826, 0.8783366165979124, 0.9394036950379908, 0.9953144537115423, 0.9333705819534869, 0.8613760627973788, 0.851037454878139, 0.9946056319225638, 504.3767923271183, 235760.541405461, 36.600218985491686, 1010.1505750327904, 922.7167717809587, 91.28465954318067, 1.775996523202957E9, 0.0, 2026-04-12 20:22:03.215
0.0, 0.0, 22.118572585402845, 74.38019939571939, 34.24725130694765, -25.33738916851928, 72.30907538814853, 159.85218356985467, 60.727709577284315, -6.582952559638812, 125.69567329404708, 202.5882624107129, 102.88447400850114, 15.619249248809282, 157.7541610875228, 437.15548638157696, 127.72162965428467, 0.933836847575679, 0.9757110961911143, 0.9219768642796743, 0.9113006440091874, 0.9051082100569422, 0.9897894099037391, 1.0297980445954165, 468.36128764501814, 249101.83220483456, 36.60071314254879, 944.848730792851, 1066.0617939870563, 96.44674760415872, 1.7759965232070153E9, 0.0, 2026-04-12 20:22:03.215
0.0, 0.0, 15.533707117522196, 68.52735481033918, 64.04806279744837, -0.4708134853887245, -4.622403075422909, 118.06690713721514, 154.93285114520052, 36.791847983948735, -72.44809041284381, 375.3033267832431, 222.95538749545227, 111.10650720450383, -183.43594406439433, 127.19257288248701, 523.6459801772795, 0.8859417471163112, 0.9034256468489296, 0.9837275666463926, 0.929792232531841, 0.8409364348796377, 0.8927332743450486, 1.0842299105107125, 535.3992461620023, 257662.21135812806, 36.60880416294129, 1036.0268840921683, 908.0913982691426, 87.82562060661942, 1.77599652321111E9, 0.0, 2026-04-12 20:22:03.215
0.0, 0.0, 8.938531334186466, 59.59902646192825, 78.88552037630609, 26.37967978109805, -4.668882820936801, 64.25817421994586, 204.3295817194259, 173.3733415311787, 33.224571220229734, -63.6870075023472, 188.19971047409064, 716.8723781398337, 154.98233624953977, -94.12558701298974, 10.621742686331203, 0.8354330114286985, 0.9854139080505436, 0.8476187490096874, 0.8307255467408361, 0.9982413886235569, 0.9492241616397522, 0.9808237822168643, 494.2319617282743, 238502.3969207166, 36.60670006446963, 1082.951359767968, 918.8477812394651, 83.41593586290584, 1.7759965232150433E9, 0.0, 2026-04-12 20:22:03.215
0.0, 0.0, 1.3860616573310516, 51.126862536942156, 99.7510505135925, 65.62193655694854, -15.46934179014741, -15.199521000431716, 101.20953271932845, 245.96616774034325, 140.91527277307932, 51.77653847240239, 49.83389858005543, 267.8941134663609, 391.4518971662027, 350.94383397465356, 132.871197115665, 0.9426938691392356, 0.9724774652908995, 0.9542398023225992, 0.8046492642638093, 0.8323529923647897, 0.8878040311050196, 0.9952713685253198, 479.9606868713123, 270951.7282905822, 36.60130357799403, 1059.4992703738767, 1086.040613248013, 86.8906859328709, 1.775996523219122E9, 0.0, 2026-04-12 20:22:03.249
0.0, 0.0, -1.8569338772391504, 36.8593475526807, 92.10470327450642, 108.41703245072117, 40.14720587616502, -29.943728633501905, -17.755545940912825, 235.8563939469663, 182.61192397468255, 203.06318093626746, 62.146301673160174, -74.16259985686023, 45.46940777207628, 323.47303328984583, 614.0569129036803, 0.8363174823049205, 0.9669555554121968, 0.9783423398942565, 0.8716594752052187, 0.9067890646886879, 0.8489570448490881, 0.9572141234009617, 460.5050245816542, 277485.0841332365, 36.59899685663393, 952.8583561618713, 903.7140252679189, 90.37025330927246, 1.775996523223169E9, 0.0, 2026-04-12 20:22:03.249
0.0, 0.0, -6.4494491886409975, 20.208127882623515, 76.43712403626529, 123.36291599530885, 101.44019787232895, 22.98931664102846, -52.678549905186344, 7.789860605450258, 130.04524244460882, 196.7559948447625, 217.74103366447565, 137.64323544632276, -116.71261622078634, -81.78162095116406, 217.04703135667407, 0.9443547049319055, 0.8754980546454111, 0.8404434481594897, 0.9776845373809077, 0.8429283897037148, 0.8010576576519681, 0.9022028236154681, 501.41830253952736, 278598.3181690878, 36.59060505458271, 1077.4717305068245, 993.3588214992769, 84.22094111988841, 1.775996523227162E9, 0.0, 2026-04-12 20:22:03.249
0.0, 0.0, -8.596834684933533, 5.3977077198472365, 51.036458634903255, 115.76416316068087, 124.7822173878563, 102.79656259648576, 41.89103526638323, -57.620757817422714, -17.526469933919373, 73.32120960128064, 264.2488560638643, 306.34502857374133, 615.0801513996155, 158.93226200757843, 13.118365284482536, 0.9017077762123057, 0.9943175461284596, 0.9762671308856278, 0.9484590389372501, 0.9960799011454445, 0.8875778839625951, 0.9722762148489468, 475.9646021540319, 261651.03999835497, 36.600819588115485, 1062.4088009217503, 953.1804491431933, 99.36491773663806, 1.7759965232311685E9, 0.0, 2026-04-12 20:22:03.249
0.0, 0.0, -10.86528525244482, -8.490746660356855, 22.697511217588684, 72.21731412903341, 123.74339234712387, 189.4004489679491, 160.56972683298068, 79.18018682244602, 42.67781210500646, -24.401025882625504, 10.355858825103837, 76.98664337223816, 450.05922212161147, 477.3042498587338, 252.57310295449213, 0.8081839536430513, 0.8962081287984239, 0.9949890606761992, 0.8827636157101434, 0.884236811081487, 0.8767028974349467, 0.9340886140273011, 458.94773918757204, 253831.000433658, 36.59935853139212, 948.2928927781592, 959.336102974197, 83.24554548248308, 1.7759965232351766E9, 0.0, 2026-04-12 20:22:03.249
0.0, 0.0, -5.504006192917359, -10.567459614969763, -7.362579423007794, 35.513895705444966, 98.07842592971849, 155.7010495030074, 188.05724044066807, 215.593503969793, 133.7741211258878, 94.50554348413506, 45.5396211439496, -131.30428285402513, -32.730067886066394, 108.26881567116797, 143.22936059085896, 0.9794429763566869, 0.9740012328576538, 0.8267271265934233, 0.9200007914828957, 0.8075239270919928, 0.8131859696977323, 1.0035301679926592, 524.2537337068949, 239116.42700947518, 36.59241135586477, 1029.4859098416532, 1039.3112171042492, 80.1801588523198, 1.7759965232389705E9, 0.0, 2026-04-12 20:22:03.249
0.0, 0.0, -4.231337213484387, -13.341044731230276, -4.788439884328085, 5.487022638380793, 34.23805925147924, 157.2423581504049, 130.3401047331779, 217.76951084353303, 247.2147453390155, 242.19991284709977, 512.002541320759, 201.72804447838524, 124.71657158757822, 16.032268391928397, -80.92963895089682, 0.8366249827292876, 0.8357369513862493, 0.8178693487610182, 0.9912152340731354, 0.9851815161962608, 0.8596727100436576, 1.0925824887398017, 479.97677127565953, 255988.44102142047, 36.60077016010193, 1050.0156225567441, 903.3021486211567, 86.56824338198555, 1.7759965232428577E9, 0.0, 2026-04-12 20:22:03.249
0.0, 0.0, 2.4889455113651238, -8.156886187789787, -26.21681730767179, -16.155709679484886, -27.879981581192496, 19.96626784617979, 22.121669111867995, 73.50567835098391, 126.89659491342064, 216.8736852849638, 417.6659658077603, 203.17168104529705, 367.98458897342084, 324.86446402297224, 449.93163431064914, 0.9335500488547496, 0.9529074629937312, 0.981089501000291, 0.9152817190820169, 0.903320203409412, 0.8297099162962308, 1.0253230953498829, 455.53382362830587, 257496.2679639412, 36.600572487252315, 1060.7810483184462, 988.8488234968704, 83.56979407652359, 1.775996523246873E9, 0.0, 2026-04-12 20:22:03.249
0.0, 0.0, 7.0980248805390005, 7.996227863279092, -10.772068187479114, -9.185906870083024, -10.343197864280626, -89.51533208387028, -20.056793674921494, -59.31552735354725, -67.54048243946258, 15.103954724637092, -4.6889923491371235, 54.882972098932996, 79.38579835608016, 142.35291217581113, 195.60741435073436, 0.8962749469028508, 0.9772625146327137, 0.9432372637910428, 0.9052341300867605, 0.9314206047365788, 0.8197660635862127, 1.0059228147507313, 528.9469224213822, 270169.6117113158, 36.60492561129963, 965.3596947625407, 909.6208290527218, 96.65365803720279, 1.775996523250847E9, 0.0, 2026-04-12 20:22:03.284
0.0, 0.0, 13.878258838584774, 19.10066150885497, 17.34954241605479, 13.673408502865165, 20.464841163700804, 23.253521784726132, 30.67579509077099, 3.658446346584981, 43.99190711494842, -55.63687366605001, 13.249086696433949, 46.27921976093714, -145.47815203914115, 36.84961406804247, -57.97224604180468, 0.9890150182073482, 0.8171552591320019, 0.8235612762236589, 0.8100647483513341, 0.8968574408616509, 0.9539835441123167, 0.9526635885405194, 485.95124398337725, 240293.8873201305, 36.598313634529184, 963.7222589999618, 1055.5607576551117, 97.52154249131725, 1.7759965232543788E9, 0.0, 2026-04-12 20:22:03.284
0.0, 0.0, 21.42317554140147, 33.6417806075686, 48.712306002179005, 62.46285322764522, 80.95350621010314, 97.8074735574426, 128.95663584885105, 136.8688475622792, 181.03428829103245, 164.68400661248518, 183.61238362178375, 233.48490496184718, 276.18435449215053, 540.6412657222213, 388.54435738338736, 0.8129649459703338, 0.903408247246971, 0.9573714689668792, 0.8823883374365892, 0.9505556840754198, 0.8011468552534086, 0.9260155122308641, 548.3675361821585, 278751.8034668877, 36.60107931478993, 967.7273546176486, 991.2010104442575, 98.95855826397954, 1.7759965232589047E9, 0.0, 2026-04-12 20:22:03.284
0.0, 0.0, 27.968070469104685, 51.771970567457096, 77.66291048813906, 112.17229905409654, 152.2177328296629, 148.15248229317166, 181.06409645072154, 202.80028155167858, 274.23081012653586, 319.38526466723744, 352.7398996437404, 332.21831571507283, 356.77861349858665, 588.1038431125555, 239.17216410933784, 0.9727922855495269, 0.9789692257440968, 0.9374250942917758, 0.8842928267507689, 0.9715296810117443, 0.9914962148421621, 0.9665511821358279, 479.4739174732627, 277541.63696503825, 36.59354496643114, 911.8288844003043, 1050.5295593570168, 90.04763181399758, 1.7759965232629244E9, 0.0, 2026-04-12 20:22:03.284
0.0, 0.0, 33.683387626824725, 59.950637121122355, 96.10508788579759, 106.02131505268768, 165.02885804692932, 141.7602735034573, 169.72562669134425, 160.71303131010882, 127.85145758362712, 96.76447671787994, 41.75831703581552, 10.917245216084467, 70.25278526256584, -179.1632895298044, 23.89892990706892, 0.9131062042469732, 0.9743921761581388, 0.937952080476158, 0.8833820824929209, 0.8516002220580402, 0.9681019001338432, 1.0037060150859054, 514.4908284406995, 266601.96921035234, 36.59634578920218, 918.3897137421227, 1022.1175625736696, 81.53855680215993, 1.7759965232669516E9, 0.0, 2026-04-12 20:22:03.284
0.0, 0.0, 41.65789577438642, 68.67652972548565, 107.26864822126797, 123.28902848408593, 97.93703535036767, 87.07698789627973, 52.990561422183646, 30.91672882897346, 20.849540735847214, -19.275459231157697, -86.92822139916547, 16.093974978008617, 32.630309180123106, 175.20072288133733, 350.2926493744029, 0.8891011889350012, 0.8834060933788527, 0.8059342736083059, 0.8544124691391515, 0.8607550735728023, 0.969991498997738, 1.0258183115697779, 458.6535435063036, 241123.43629611953, 36.59217000893403, 1028.2821096546386, 1043.2916135017756, 87.78192717101335, 1.775996523270964E9, 0.0, 2026-04-12 20:22:03.284
0.0, 0.0, 44.79008462632086, 70.55012583081106, 81.94698275043139, 77.94652903968776, 47.526049793158045, -8.059240580980983, 11.102728290060313, 8.148893946656116, -16.089912346898075, 90.0042675452949, 176.5375778561716, 290.75552316109076, 243.13585165988076, 267.7235255475564, 260.6039125966964, 0.9659699619491203, 0.8761989854785724, 0.8010230075307763, 0.8102594386766151, 0.8385075823692395, 0.9445961063335363, 0.9908746850488037, 527.0023758334804, 269919.2477061534, 36.59049119066317, 1092.259584725843, 955.0622381849518, 98.44364373147407, 1.775996523274951E9, 0.0, 2026-04-12 20:22:03.284
0.0, 0.0, 46.19991813897485, 69.25952194643011, 70.43541872462168, 38.838989571380694, 1.5963866761962322, -34.81846950259987, 3.990993253752478, 59.07157874935129, 138.9326069016213, 253.9503557612573, 249.41103995023204, 217.57963749107154, 135.41643797040877, 69.40015392637838, -0.9678614291310339, 0.9296185140362544, 0.9642321263147827, 0.8140912361548757, 0.8560068642028279, 0.8011819422723127, 0.816241644080423, 0.9967518935088251, 487.80150121050843, 252764.09153635363, 36.607460039535255, 995.1368521556698, 1091.235449439365, 84.9079741544578, 1.775996523279084E9, 0.0, 2026-04-12 20:22:03.284
0.0, 0.0, 45.58896541451328, 55.39724361777874, 38.66762698714897, 5.827689412976099, -36.506813564683256, 18.05419867004168, 92.94043672160234, 211.43565049553993, 477.7873655644342, 175.4125688895661, 75.57688098620851, -62.065039092295564, -137.87801465442368, -19.98644940591913, 486.7660041423559, 0.9690905865873564, 0.864638073430965, 0.8175145997838683, 0.9373025704628463, 0.9874796069391915, 0.9333809584975291, 0.976121142018645, 500.14125531844377, 237519.36378583123, 36.608185681189, 1048.9838038974247, 1012.9857436596557, 94.8097963668021, 1.775996523283068E9, 0.0, 2026-04-12 20:22:03.284
0.0, 0.0, 50.18362174871392, 45.647265639223896, 8.332108102267945, -4.189326827738007, 19.087554608905805, 90.46624838758535, 141.20689075472114, 193.87160309192808, 264.7211999618397, -39.83734562799668, 46.79262195849307, 74.4708435765714, 213.23076074903844, 380.9207605920277, 601.3831414550107, 0.8254121629581596, 0.8696133980904176, 0.9158655242591843, 0.9877663284925783, 0.8697536985375399, 0.995034428254541, 0.9117105398526494, 518.0420909970131, 272644.6123187777, 36.59023849152816, 1076.2453302917852, 1058.8524306060929, 85.20022065680618, 1.7759965232870717E9, 0.0, 2026-04-12 20:22:03.315
