EXG Channel 0, EXG Channel 1, EXG Channel 2, EXG Channel 3, EXG Channel 4, EXG Channel 5, EXG Channel 6, EXG Channel 7, Other, Other, Timestamp, Other, Other, Other, Other, Other, Other, Accel Channel 0, Accel Channel 1, Accel Channel 2, Other, Other, Other, Other, Other, Other, Other, Other, Other, Other, Other, Marker Channel, Timestamp (Formatted)
0.0, 0.0, 21.50830686797708, 25.77614767320905, 49.23685337359666, 34.98179489787046, 82.30423279936184, 36.45317252772827, 117.71775183189581, 21.421735357307455, 168.67804589304023, 20.690446184240187, 159.31476788391896, 30.797634242263, 195.19431342681926, 39.12671341069871, 240.3335807391719, 0.8599545844939049, 0.8620617363463051, 0.9389256007497556, 0.835599943963382, 0.9791690828983522, 0.8098572375536148, 0.9098162535480974, 486.6841306420802, 262049.60694537492, 36.59357770251384, 955.7494464211366, 917.8375732654152, 83.88387310215725, 1.7759965233585253E9, 0.0, 2026-04-12 20:22:03.383
0.0, 0.0, 28.855853709306928, 9.56289502666954, 75.1475328922773, -3.9870727776294856, 111.65232112683938, 9.368412909037275, 168.39067022056753, 11.076363933056143, 239.23071956934731, 36.78721713981129, 235.46754233482181, -38.29770781126393, 546.6825982216542, 86.95533016894099, 285.9175866744935, 0.9940816364375401, 0.9142174968762998, 0.9615873415459738, 0.8122846796458572, 0.9124485432529529, 0.8450093109961959, 0.9150941118145569, 532.8739280829135, 276986.1651952386, 36.60007686028663, 981.2748925919385, 1094.3540355831274, 88.81589067327172, 1.7759965233630853E9, 0.0, 2026-04-12 20:22:03.383
0.0, 0.0, 35.496883992599, -2.471693803780532, 84.51240929088542, -13.642755662486884, 141.37954155978636, -40.643240084334565, 138.1093505914326, 15.800264609146438, 132.97625026014492, 127.81623141176173, 57.35877644490388, 565.64018976166, -42.66250080814416, 278.8659304069791, 64.69574560546204, 0.9739880590871864, 0.9608505869514358, 0.8953926577732685, 0.9330337923508748, 0.9529193487921154, 0.8560706218354974, 1.0406145570793364, 519.9780089735219, 240904.87087163198, 36.5961049855075, 1009.2664018228398, 919.154024765991, 80.88500787544778, 1.7759965233670757E9, 0.0, 2026-04-12 20:22:03.383
0.0, 0.0, 38.78510121818655, -9.820302465113151, 96.40293066406633, 2.9129045054685676, 114.67255185221157, 49.49981021507274, 57.41679177800387, 180.42747952374984, -30.86784071993449, 262.2552238152829, -37.25094782128676, 523.1611649311784, 148.81107506683378, 145.15327320215357, 323.448459235679, 0.9863798345951654, 0.8567611753274392, 0.9092380247256108, 0.9628033884537303, 0.9505216862306239, 0.8496013519055189, 1.0523592626185219, 488.0655725451326, 251179.69335241214, 36.59774609123998, 1059.388432669408, 949.5432050100859, 92.78696039598219, 1.7759965233710644E9, 0.0, 2026-04-12 20:22:03.383
0.0, 0.0, 45.0198554284368, -11.98510372624159, 93.56081430409697, 15.211190774802304, 49.14325468571589, 140.79136625022926, -50.47544035255973, 210.86853166432488, 45.97672177881294, 159.7302028653296, 194.95189116974893, -18.459313907921143, 345.5020702836032, -63.24014218988759, 391.32531414170234, 0.8475851884482251, 0.8056935474675974, 0.8188612668107843, 0.8453208553271057, 0.9938272445451061, 0.9236471221692607, 0.9357793826330335, 540.8789157596367, 228531.24836271143, 36.60239657044547, 910.2011196694561, 902.8747975018978, 81.35910689569786, 1.7759965233743205E9, 0.0, 2026-04-12 20:22:03.383
0.0, 0.0, 45.01840782982477, -6.642557944632465, 70.99175701611422, 63.70348981603413, -7.465833618690056, 189.92523512434437, -9.726092577922117, 118.05204857397115, 184.6734822145819, -95.28782137217891, 366.3207911297072, -23.685720285313124, 133.09021797097608, 241.19475153854074, 103.7928450799393, 0.857334239966063, 0.9550142688298598, 0.8286709740639803, 0.918611691694511, 0.9552879020301653, 0.9252487314986554, 1.0384635979723211, 462.0777421584886, 252943.58050054286, 36.608040988643616, 904.2434411463873, 1051.023483151291, 94.32556691586088, 1.7759965233785658E9, 0.0, 2026-04-12 20:22:03.383
0.0, 0.0, 49.673000353590204, 0.6606169624561353, 38.47229688647379, 111.92467316645084, -7.3532663302109995, 271.7589095921022, 94.52624823691184, 26.099096765001285, 501.9539216694195, 32.75091656864696, 104.40102733782055, 370.94788302677, -157.86371460834374, 281.59609139401516, 245.5560378321594, 0.8462673844591855, 0.8365916502399459, 0.967194794568171, 0.9047563584302644, 0.8626766807798809, 0.9825806179361353, 0.9566648755733728, 542.1207301575425, 269455.0381791965, 36.59097652446814, 913.234114010112, 935.4267883304019, 96.61685964492422, 1.7759965233825667E9, 0.0, 2026-04-12 20:22:03.383
0.0, 0.0, 47.39299035880585, 12.332855172647086, 13.829400703064739, 135.29416096223218, 15.271467289481734, 103.44381717602698, 157.00681786117582, -68.08951539701212, 247.3096500237877, 502.82122977899417, -12.874394905870446, 242.2434374071746, 190.91483237373208, -101.69084456850015, 470.8475064331278, 0.9048424616656306, 0.8660465128002129, 0.8755019068138071, 0.8352392280490383, 0.9251621150026793, 0.9412102488720447, 1.0893404554936024, 483.4729879124605, 246030.89752111005, 36.592567465103905, 968.2782207393004, 980.3747013794724, 99.17790452621992, 1.7759965233861053E9, 0.0, 2026-04-12 20:22:03.416
0.0, 0.0, 46.44398055001875, 28.77016111763251, -7.724053419091113, 115.03594369665977, 59.88153761704191, -16.460862494434593, 166.8745214843858, 92.03329726904362, -57.007992271339646, 521.7491659151265, 123.7577765562651, 7.792635027601591, 245.28912506036124, 306.3002599404738, -138.208574718847, 0.9363496120460163, 0.9104312899697956, 0.8812201698338815, 0.9358929618117212, 0.9068658589231792, 0.9132957155233626, 1.0890426417648582, 471.48808119750413, 241166.8582328203, 36.60191771573, 931.1520736130451, 1061.996469729926, 87.02146714115933, 1.7759965233911047E9, 0.0, 2026-04-12 20:22:03.416
0.0, 0.0, 40.230965670291624, 42.944819686179315, -8.845195709968486, 81.93886574109528, 125.21505731530023, -48.523058717257285, 83.71710932006907, 194.2886762615238, 31.763929505354724, 139.59209977386132, 347.5490182684528, 22.88783191031864, 57.37325299460393, 661.0219401554616, 158.68720482325733, 0.9679425809262369, 0.9276215413846151, 0.8966336666732984, 0.9041811974548516, 0.8404461065273447, 0.8672047133089805, 1.0434643688266247, 465.01962151593017, 253177.15741786276, 36.59667104237234, 1035.8339260104578, 960.0731686648985, 95.82460136656017, 1.7759965233950996E9, 0.0, 2026-04-12 20:22:03.416
0.0, 0.0, 34.769235270604696, 58.38165278605196, -14.20014217778538, 33.89854657410585, 140.48012263362196, 27.273597211548378, -28.964193066817842, 166.041479603538, 156.97553496165423, -69.30672794227328, 127.18292701475399, 193.73411227487776, -28.71739846771689, -83.22773099371176, 462.7526371090498, 0.9424882451599189, 0.9693902056708436, 0.9473126475826766, 0.8882000568948947, 0.9210282306876157, 0.9949716337619195, 1.0735434749443302, 462.3702894453247, 254397.3447165719, 36.593860555960454, 942.617586740528, 1082.2425477745267, 84.03558421261634, 1.7759965233991437E9, 0.0, 2026-04-12 20:22:03.416
0.0, 0.0, 29.349584081563492, 72.64242075812393, 3.779586509941261, 8.226718663157584, 123.18891828969093, 125.47009134082683, -22.31393114755744, 63.60325958034849, 193.31720819756038, 109.40793173369512, -157.60659601434364, 198.93378418474816, 232.8575351097012, 83.43665054073554, -93.05588393360551, 0.9917162053589422, 0.9479747294857507, 0.9494599050142128, 0.8191455014214107, 0.8023188635580194, 0.9586012772214173, 0.9390777601259128, 459.17129349550873, 269476.0951054506, 36.59160661499357, 1073.381461658896, 997.8640698942646, 84.32735707839485, 1.7759965234031E9, 0.0, 2026-04-12 20:22:03.416
0.0, 0.0, 21.94675762740693, 76.65384893513847, 33.657507962629396, -11.14971461215081, 71.61978617269394, 165.82645762112128, 62.857988348777994, -70.99824276839368, 134.28854383884226, 319.7029166835391, 177.49117392099492, -26.095999241820294, 209.57641924493979, 508.59146344139964, 173.45730000555636, 0.9342785476797618, 0.8452228937067374, 0.8126496216291836, 0.8330909184624619, 0.8665024121013424, 0.911946061559234, 0.9646527973733492, 542.3548283879369, 239138.50839453627, 36.603706112441934, 1083.3826544586796, 1031.51970726134, 98.00766502658024, 1.7759965234071133E9, 0.0, 2026-04-12 20:22:03.416
0.0, 0.0, 15.458697357038796, 73.6445034489401, 57.96554104730925, -10.011309489752179, -0.7966578235135202, 150.67052031262236, 168.1227468383095, 17.660735837682196, -24.597982435060345, 165.19053441033438, 572.3412181958838, 89.73121435699491, -83.65176679783733, 128.55927804385897, 579.0812111343216, 0.8060402243226794, 0.8382117623008921, 0.8442311457107591, 0.8612507370100447, 0.8817851472186534, 0.8480534182658368, 0.9323536537358194, 507.88941922762774, 253131.6147398305, 36.59819451224461, 1029.516539433771, 1044.4747550289974, 96.08589415446157, 1.7759965234114156E9, 0.0, 2026-04-12 20:22:03.416
0.0, 0.0, 8.865400688366929, 62.58509259087368, 78.07393622967705, 24.01262491860598, -35.124412642924526, 63.870557700854526, 221.67289060350967, 136.63364248183674, -31.211749379375192, -29.48530670795361, 163.05453845027952, 366.9076673995381, 168.2296164187388, -172.54990131138834, 92.87362872656666, 0.9680491088213531, 0.9659642289165112, 0.8917845279984855, 0.963206170535352, 0.8777942704189566, 0.8296673393815607, 0.9246257500694349, 503.57111853997384, 258885.38628736392, 36.60974903233643, 913.5701674188205, 997.4035050525383, 89.61370456729757, 1.7759965234154296E9, 0.0, 2026-04-12 20:22:03.416
0.0, 0.0, 1.4185549674582383, 52.14826222552749, 94.58481492216143, 61.87906334934405, -1.1502889558251042, -18.260920535736716, 104.69426968950616, 181.27461150798618, 157.14763471419386, -1.5697758760411062, -39.78585140051038, 134.36427994984265, 435.4557281593193, 374.74654510098617, 45.64838877503283, 0.8653490487894311, 0.8538039610887024, 0.8381619343566816, 0.9985622259664543, 0.9878551187199308, 0.9916367946081012, 0.9049118638405931, 547.3087705310837, 237480.1750541507, 36.595612245074086, 1017.9913989372906, 921.2883511315681, 82.68296637034858, 1.775996523419348E9, 0.0, 2026-04-12 20:22:03.448
0.0, 0.0, -1.6784249737488288, 35.94534663041967, 93.6892346304075, 115.08632682874075, 40.4157216513247, 6.557170287563331, -13.835835278751375, 121.7824533041202, 278.02519354328825, 213.8975148503759, 85.34083655261706, -93.11900701691735, 18.49899844080217, 218.2245329432563, 352.54706493394116, 0.9461127266067605, 0.8156069346777898, 0.913786129679094, 0.936908625345439, 0.9982116545863621, 0.8174188596994361, 0.9966800097657166, 460.1614408623484, 233663.8895614572, 36.60651614264171, 908.7993851638299, 1026.7788731044382, 90.87561371959437, 1.7759965234228528E9, 0.0, 2026-04-12 20:22:03.448
0.0, 0.0, -6.797896520951706, 19.4245667049544, 71.79568582787337, 128.2257692687621, 109.06047090529222, 41.51575784452518, -98.40388486302965, -13.95215711779079, 135.17193145409948, 173.6682745914114, 208.18351172473723, 158.28067526144662, -91.4522101741394, -93.13788633107433, 42.12354868975763, 0.8286025568397842, 0.8354482575512656, 0.8760406296917367, 0.9576918709617198, 0.9714085952497976, 0.9044116019040981, 0.9181381800575839, 532.023369451028, 270534.761150814, 36.59964771312173, 1062.5991988676503, 979.6530634008936, 88.1315713756083, 1.7759965234268951E9, 0.0, 2026-04-12 20:22:03.448
0.0, 0.0, -6.7335717851391585, 2.9823229262895445, 52.80682755468464, 125.85998632931118, 123.42519623859208, 112.60867262670855, 65.2519176186518, -61.03620514123827, -40.70632217456509, 52.19572689252169, 172.54304849823342, 387.7562127878405, 586.8135165892836, 166.02604334393544, -25.589114166643384, 0.9052973970450818, 0.8996229595834356, 0.8070220885564771, 0.9947499440483717, 0.9425668758177569, 0.8374285220670349, 1.093332089617481, 466.76582947963453, 265944.33616377786, 36.59221852238519, 913.4137128973383, 958.8792508557714, 92.0661238827731, 1.7759965234308531E9, 0.0, 2026-04-12 20:22:03.448
0.0, 0.0, -6.40346654925094, -8.422878216542628, 22.50871568891665, 84.96276592111175, 124.00292612190536, 198.72870880034108, 269.0283306204125, 74.81741797570754, 17.040397085587898, -3.675243483786886, -29.4698623343198, 105.80400311989693, 448.13245367639024, 290.9178099810099, 215.447805008379, 0.8193575728135712, 0.8092260415748226, 0.8393531270400205, 0.8024354646996938, 0.8980423029030787, 0.94305174007178, 0.9170558119702646, 534.2935675789063, 234853.5887851879, 36.601306872459425, 992.3405885016361, 1070.2524550939252, 94.85688972871132, 1.7759965234350107E9, 0.0, 2026-04-12 20:22:03.448
0.0, 0.0, -4.529512169779512, -16.490607997450972, -0.2838879790048736, 36.00160647358854, 88.7936232881533, 132.78350275842521, 215.0082212502096, 357.21462198714335, 178.1481521842755, 87.68755142094044, 25.154974488494005, -41.12634624797434, -85.10050921599736, 111.80578651713986, 114.59682383464235, 0.8337159862113034, 0.8043998066881733, 0.9138418806332086, 0.9852317117606334, 0.8469680910916922, 0.839266527245297, 1.0570089289610451, 471.5645048958702, 278180.76416633173, 36.596756583840154, 944.5941882081371, 1045.2249161088414, 97.68973948348638, 1.7759965234390368E9, 0.0, 2026-04-12 20:22:03.448
0.0, 0.0, -3.7347947896436544, -11.69154472150342, -18.027542267613242, -9.92325384539506, 28.010247442669012, 78.47509761795945, 120.04713939328121, 393.01860933357, 300.8185587328903, 260.41453133537146, 275.5509982471515, 391.2813957788708, 118.36505268968772, -28.0507232227709, -176.1571925369866, 0.8434719588412984, 0.9102304527707862, 0.8090989444153373, 0.922017580773509, 0.8621087538854922, 0.8439237825612514, 1.0259677483154253, 465.1959646990049, 261498.20848943345, 36.59592701967869, 982.2158208568452, 920.1429576498421, 85.78397814089585, 1.7759965234430263E9, 0.0, 2026-04-12 20:22:03.448
0.0, 0.0, 1.6921300193152327, -3.1793044465559746, -17.909710512592866, -34.152502679402446, -4.98610373790703, -10.409599175422159, 31.674820572117696, 150.35597946206047, 125.90899524015948, 200.8475339332644, 209.6044126314365, 552.2788137417494, 472.80466862816564, 335.6230691162543, 274.8418225948098, 0.9314468494816316, 0.8619023512955555, 0.9423960493020652, 0.976169559082006, 0.9703441825901263, 0.9889589834171105, 1.0057139545583738, 466.0234454733198, 240159.9846983959, 36.5996785140519, 1098.9942389688567, 1053.8936409374849, 99.97274030522286, 1.7759965234469855E9, 0.0, 2026-04-12 20:22:03.448
0.0, 0.0, 6.591554884645571, 5.301325250724105, -8.300781574335595, -15.513059839872327, -12.821032760347137, -2.4584988930567846, -17.755480450887347, 5.250423403461653, -44.182322549411055, 53.15485858425465, -16.8392741382209, 93.77790564047072, 95.96883042981123, 255.5344445652272, 196.3934252596865, 0.96859735567304, 0.9718016744944064, 0.998818425575282, 0.8608482447560979, 0.8916201945598459, 0.9004921775081024, 1.0160261720589072, 454.9844097117908, 243882.8711535303, 36.595492807299436, 981.4865715233153, 1025.372936203667, 99.89843235543945, 1.7759965234509523E9, 0.0, 2026-04-12 20:22:03.483
0.0, 0.0, 14.565083965237058, 18.100494427306877, 17.439349501807847, 26.29336128694905, 9.217227498793399, 10.723801230397079, 13.914266258139108, 36.63616074614785, -13.898906076043133, 21.939157207952164, -5.353040520735306, -111.80361512087129, -160.66767639207671, -121.07831231227004, 78.1288363851314, 0.9817011108131678, 0.8553756713850996, 0.8874932711627302, 0.8543041941406901, 0.8401873992624572, 0.9780407953053863, 1.0346904227341458, 520.443445672123, 245764.41162200607, 36.60339540482318, 909.8909672999663, 966.7868262221149, 90.66277647060767, 1.775996523454961E9, 0.0, 2026-04-12 20:22:03.483
0.0, 0.0, 21.5304062589963, 34.07250869772291, 48.091446811963124, 66.83197841540587, 76.74873737457001, 98.59116660892204, 104.40495277694119, 127.27465447223989, 153.8838007885656, 146.43206791417145, 236.5037702915998, 299.6826402643097, 246.85700724064736, 560.5819001578516, 425.5451125335258, 0.9862964971549112, 0.9488487631110009, 0.8440247691679494, 0.849721067658584, 0.9226684823127059, 0.8909930849885334, 0.9596556867986424, 505.43447748120684, 245377.23080264297, 36.60055085284968, 1094.4309569089964, 1072.8999026154709, 85.89327321439734, 1.77599652345902E9, 0.0, 2026-04-12 20:22:03.483
0.0, 0.0, 27.624001082061767, 50.1119370127533, 70.75755353305398, 106.40642209610482, 128.73520616901982, 190.85737721634635, 181.2587255104612, 200.38996639373627, 179.5027337812035, 335.80769764376026, 316.3950976054842, 320.626862655751, 199.22237746195057, 185.93053856812497, 468.91912105143524, 0.9292766832218032, 0.9074927856565974, 0.9460448105388998, 0.8663350523089876, 0.9211474316557856, 0.8032215584285463, 1.0386289145927776, 465.2282847525404, 275247.9517897933, 36.60811688042227, 1019.4047212482444, 1019.8531856210325, 95.38511725668994, 1.7759965234630485E9, 0.0, 2026-04-12 20:22:03.483
0.0, 0.0, 35.43824645820173, 66.67246133350525, 83.47200697019068, 130.8713068630351, 155.83696256074825, 178.32547709111003, 166.81473925542872, 126.72263678278935, 134.8287352603362, 84.65759367251404, 84.74346885051638, 59.59251546807782, 29.54189013171522, 65.00671617295495, -149.77990204672147, 0.8925754704644123, 0.8346375940454481, 0.9181756956331236, 0.854262287870169, 0.8920609000756796, 0.919376985095887, 1.0139842574747517, 501.54393613901584, 273298.407436678, 36.60429139262609, 1037.9395506026954, 970.3037934616602, 81.91972324883962, 1.7759965234670265E9, 0.0, 2026-04-12 20:22:03.483
0.0, 0.0, 40.9595078409742, 74.0009682489044, 102.65885311517083, 125.25552937767996, 101.52554919662589, 96.42352172372827, 61.06181449791915, 46.76962299664978, -86.34508453025381, -25.891893378676315, -116.26949657185105, -64.27552317500624, 107.67185402655004, 168.17316904281125, 538.309508876253, 0.895790821052895, 0.9834345006221715, 0.8014321954128009, 0.841200261714955, 0.8745370742892717, 0.9009184924880785, 0.9883797729930892, 470.38421197522564, 245570.337577611, 36.60171007176542, 1028.8960333803172, 1036.5033354994275, 86.67061406905357, 1.7759965234711704E9, 0.0, 2026-04-12 20:22:03.483
0.0, 0.0, 46.68919057890953, 68.86738946603157, 91.23071381850944, 85.69677758634558, 48.18796185261996, 20.861714004843925, -44.903125419828825, -18.145616805521215, 27.39641504634676, 122.75493764157184, 152.81253009981586, 234.44421843764107, 268.04093132373544, 217.43642469301352, 214.80842750190394, 0.8622991348704138, 0.8760223391295615, 0.9686104819034748, 0.9189034631284844, 0.9433176997728269, 0.9776382281892398, 1.032180287035077, 515.4410961502351, 258235.3796765913, 36.59557565696211, 1092.0704045528835, 1067.05511457286, 80.9708268853088, 1.77599652347517E9, 0.0, 2026-04-12 20:22:03.483
0.0, 0.0, 49.20161488774509, 67.97342846275646, 67.52602641605894, 37.36839366244295, 9.54160923952098, -40.23218748919888, -34.03686593657761, 57.722673380440256, 144.09869267510106, 446.4253077447195, 317.194816130969, 204.56465867218046, 133.0976989189539, -35.01637139075984, -163.05733763681172, 0.9662544595455408, 0.9394102781543717, 0.8529199218587142, 0.8947343441134067, 0.8444819393634609, 0.9409262240151658, 1.0769261374998278, 467.7374354018814, 229875.16013019113, 36.60100988720417, 904.1305282630603, 906.0642367915823, 84.80827714987792, 1.7759965234791787E9, 0.0, 2026-04-12 20:22:03.483
0.0, 0.0, 51.049543317149784, 56.871560550665265, 38.46633677976663, 0.05357557140541047, -19.388631113073757, -2.151386295954751, 87.8976998062047, 151.52706703158182, 439.1994823218884, 451.1541065870971, 167.8822675306731, 74.12671745989218, 71.61367962453892, 62.96292016404787, 195.52600200131855, 0.9588206023073106, 0.8321867599345755, 0.8317187303617207, 0.8185825520223508, 0.8163167163430074, 0.9956492017900705, 0.973934403696089, 510.2246929216564, 248465.39707470356, 36.606395003710915, 930.4750444812393, 1013.6785798110631, 83.5955407310768, 1.7759965234830587E9, 0.0, 2026-04-12 20:22:03.483
0.0, 0.0, 48.68868917194389, 48.70221931623372, 6.199041496745487, -7.454905820139324, -6.488377834605416, 84.29461919899944, 162.8911962527925, 188.97150031672683, 224.06405637757356, -50.62597255392785, -109.10868351067029, 77.23793243161445, 226.901566405122, 466.82147578258486, 473.48104568697056, 0.8470956220389813, 0.9611444196078217, 0.8323162981877574, 0.9709204606065799, 0.9386804283641154, 0.9602471856938265, 1.0997920145584188, 534.570362584252, 254579.3545694345, 36.600180898228395, 1091.8664900920294, 1060.2209145475656, 80.90302273445792, 1.7759965234866729E9, 0.0, 2026-04-12 20:22:03.516
0.0, 0.0, 43.68095019526775, 31.01864368639982, -15.195992508032788, -13.476122192838304, 59.89023167169436, 143.8167017419964, 197.09924029943693, 86.2642546343701, -62.73328702966103, -65.89292714980041, 277.6226643694485, 214.68694082063243, 309.6832948960244, 135.8950639611097, -185.85526607789956, 0.9054308803366568, 0.8354596636027466, 0.8948007021345972, 0.9519320231990905, 0.9081444568876337, 0.9948457998723511, 1.0257927695574418, 482.99680926451805, 275873.6589829568, 36.59595786881373, 1032.3067427233045, 901.2485617389422, 99.21627821494448, 1.7759965234906886E9, 0.0, 2026-04-12 20:22:03.516
0.0, 0.0, 39.25650392449791, 14.484428129833558, -18.85257482214287, 19.0444734175425, 114.039625563273, 161.400171987695, 82.38701138581226, -0.45011233555329966, -5.0802226133061055, 183.90150780621667, 370.19260394621807, 230.81461524438137, -12.576971388835716, 9.875785227899797, 159.41403653989653, 0.8053804617377417, 0.8967947853067395, 0.8417763915019906, 0.8014486589349545, 0.83687714333477, 0.8286872891411532, 0.9853820066930681, 495.9252652080264, 258856.4393774303, 36.60005761568976, 993.141368435614, 982.0784610234801, 82.50806294459147, 1.7759965234942076E9, 0.0, 2026-04-12 20:22:03.516
0.0, 0.0, 36.20828279559724, 3.1568710084797935, -1.3080749423620688, 61.80727977398671, 119.62717566971124, 92.08052014604215, -11.848193165663645, -4.462320784539898, 168.85853940765372, 210.52053807524317, 134.0033888649454, -143.2621524216533, 70.43704301212733, 363.13922201963896, 399.76115699514116, 0.9736402800302456, 0.9846855924756205, 0.9199562630688155, 0.8239736381719514, 0.8015577678654211, 0.8808719386184156, 1.0005312069927617, 546.8484607361258, 253262.67056131302, 36.59476500833531, 1016.7440078596777, 979.8578818422418, 97.94534476457312, 1.7759965234992447E9, 0.0, 2026-04-12 20:22:03.516
0.0, 0.0, 29.127798020586205, -4.278768701359105, 3.5237731809329915, 113.43948781470874, 141.97940847704143, 30.189685159243723, -53.119446920171015, 131.28539779751915, 282.159974166335, 110.28223002647994, -36.17028905237231, 77.15423937095392, 777.5393311202097, 337.3821524272621, -66.74777745464596, 0.9956465809207972, 0.8951870756812966, 0.9573423542534222, 0.9354266143624844, 0.9178261453266671, 0.9808953528630876, 1.088853760548227, 520.9008952953676, 241305.77399647865, 36.59207018776854, 1089.5781992573552, 1003.1915430308532, 81.47853402627692, 1.7759965235032113E9, 0.0, 2026-04-12 20:22:03.516
0.0, 0.0, 22.212758570166127, -14.913503194230728, 34.45924876220653, 108.83691175017735, 67.81945561277344, -7.196034120438355, 59.92167128679467, 212.6166495288641, 129.56995096901676, -70.24927892093154, 89.18713856257736, 234.74415095610638, 359.4076801178635, -101.64614591184025, 65.83867811053054, 0.8339967820888335, 0.82966901243884, 0.9801187692893031, 0.8669150065704623, 0.8801519766718902, 0.9259789256659846, 1.096923563433378, 494.4956153771189, 272383.4816159556, 36.60342192490236, 902.1246746347074, 952.1396009504867, 97.8098778557624, 1.7759965235072672E9, 0.0, 2026-04-12 20:22:03.516
0.0, 0.0, 14.749167491015912, -7.254661132493219, 58.96675540620086, 117.70320315589575, 12.47612447676012, -16.371399016448535, 179.552715169924, 162.23292254510312, -75.33501204540818, 58.00135801331129, 248.41496534015891, 146.23595421892387, -62.5521065571983, 174.76393036661602, 421.6657544026821, 0.971281413064396, 0.9820828590347269, 0.9573598986127582, 0.8161411011102717, 0.9176571244937844, 0.8311498203623494, 1.0561024726043227, 534.2843479476998, 245890.22845346242, 36.60402525704046, 1006.4613884737828, 1050.315809476871, 80.3733497139984, 1.7759965235112648E9, 0.0, 2026-04-12 20:22:03.516
0.0, 0.0, 8.679793192800407, -6.510602565463614, 84.55505113362463, 83.6148374882021, -46.44423747676149, 74.60298644945375, 229.7965021475347, 21.753809472522633, 35.592683212525415, 173.40966194931505, 144.11141813479043, 27.963822519379775, 165.0051607612179, 792.360536160713, -36.36796624510333, 0.8588114229502771, 0.9548058952188793, 0.8418554643860299, 0.8132504252635618, 0.9369429115265656, 0.9518568974723144, 0.9111858846892442, 453.1166464665182, 254373.22104444308, 36.60487814622202, 943.7030376253017, 1052.349579362188, 98.96421976210176, 1.7759965235152435E9, 0.0, 2026-04-12 20:22:03.516
0.0, 0.0, 3.667256788810082, 6.812958748313523, 91.8691240827583, 33.87465569045856, 2.5876006049840115, 141.8132077269238, 106.8642302067874, -12.440699817276581, 131.1589237843458, 188.25091693921496, -14.250981583676264, 265.02421119749533, 362.72411448018374, -1.6576778491928508, -20.202875397148745, 0.97007092255784, 0.9692235587047952, 0.8298566868352796, 0.9530060999515374, 0.8211062195245354, 0.9809200862414919, 1.0293989413426543, 495.55845981392247, 231388.4146783112, 36.59039711005602, 1022.7979035588521, 931.4430213963125, 90.17327233315126, 1.775996523518783E9, 0.0, 2026-04-12 20:22:03.548
0.0, 0.0, -3.7816536121704054, 23.223760515817077, 82.9821525895727, -9.153996912578329, 36.15290895154641, 303.65537736834705, -21.218996459308087, 59.593091281522135, 274.52754491926817, 65.19248585422369, 87.94832683089078, 525.0628904894583, 91.39758294236596, 113.54469453069589, 570.7085519558752, 0.8575975326571543, 0.9641302962764687, 0.955648381460417, 0.9698894722145174, 0.8657748757104121, 0.9348011983628327, 0.9666893537018866, 534.0168369925004, 265373.5499312489, 36.60966978250092, 987.4120260835552, 1041.4912581240233, 83.73541495250973, 1.7759965235227804E9, 0.0, 2026-04-12 20:22:03.548
0.0, 0.0, -4.260291939523121, 39.59073695359389, 80.3540985573112, -32.89979753951269, 92.11520528766829, 223.45063584918014, -41.99523294968981, 161.82168930323132, 127.78381719354051, 16.724640118206352, 249.4531320352919, 201.91577559853482, -34.22081151198981, 318.69742568946515, 178.09265207002335, 0.8791164535483743, 0.9401595422705339, 0.8652208276095704, 0.8119338873370083, 0.9296491266451908, 0.9943739705901057, 1.0697703587447263, 451.9601694231917, 255199.25440053764, 36.601810931590514, 994.1886218867807, 1067.0116334415848, 89.35578827280418, 1.77599652352678E9, 0.0, 2026-04-12 20:22:03.548
0.0, 0.0, -6.870499722319501, 52.44805966637688, 54.241955822079156, -19.92172539262394, 161.5664978582045, 51.10753806605996, 43.50487262408643, 219.31912308270557, 9.94653570753627, 168.16431220953035, 167.0678805820279, 41.39491436802679, 306.2024472708334, 123.920965009766, -72.66304543853784, 0.8949703760135788, 0.9245580139811959, 0.985696088797913, 0.8972666491960194, 0.8432414501084642, 0.8091482588886836, 0.9452666413934137, 542.6737439282394, 256945.5720201966, 36.60291506186187, 1069.8444516572408, 928.6828116601021, 93.60858896742234, 1.7759965235303376E9, 0.0, 2026-04-12 20:22:03.548
0.0, 0.0, -10.330992929301893, 63.35324905080001, 26.542716120922265, 26.986840179204616, 115.25875190212368, -17.120015277448132, 158.7286227999783, 101.68828649893335, -10.525656960346097, 295.6413635753644, -23.26066470393988, 146.19317983201702, 265.0455361862271, -2.0216876319759365, 417.2162274910824, 0.927203319070456, 0.8646810395686367, 0.8752291192371757, 0.8043946640822369, 0.8976586380457903, 0.8806712087792266, 1.0699611177749186, 491.8543852869488, 233165.5077494776, 36.60957761119956, 1097.8314818492088, 1017.8669661680684, 83.92831829909404, 1.775996523535358E9, 0.0, 2026-04-12 20:22:03.548
0.0, 0.0, -5.353710984514116, 73.3296528937131, 1.5384614331494646, 63.77776346710008, 85.50450008894362, -28.29439327843447, 238.2890554745398, 22.736452481461725, 169.14396360995318, 140.7029148030748, 55.22979402152755, 200.84400452755082, -63.621281742021466, 325.9577645976651, 139.5545053411572, 0.939295055582369, 0.8533314231443163, 0.9210357070260337, 0.810882635828461, 0.8928298358373766, 0.9403203246857236, 0.9613510354700343, 465.77587454065144, 266511.5283159432, 36.599281849649415, 1050.5030677968505, 1001.9440781112146, 89.83633662204944, 1.7759965235393484E9, 0.0, 2026-04-12 20:22:03.548
0.0, 0.0, -2.7439726315191635, 67.07245308221567, -7.9826946140042025, 114.58260033258219, 33.02969699385723, 62.749068577888835, 154.8422418332421, 20.393806992847146, 172.96704434595057, -48.35895142870805, 181.96206531523853, 90.65960447250777, 113.59223367412363, 259.0440947681992, -152.33509935046976, 0.8475743141484504, 0.9051777221425169, 0.9438963942256361, 0.9018533932340081, 0.9592876555038715, 0.9864971000061619, 0.9811214058233592, 467.7551683086401, 253184.24265967374, 36.595331247041656, 1010.6584710610507, 936.6677860942018, 84.8006935225983, 1.7759965235429256E9, 0.0, 2026-04-12 20:22:03.548
0.0, 0.0, 1.6498396734995389, 64.30696139947574, -7.1289476245439545, 112.68052385358683, -24.277343428013893, 118.65094682934561, 11.979738053792076, 223.53055474579043, 134.41821453841132, 26.716725604345427, 232.09740417418197, -131.97537437686327, 234.10379096060393, -1.2020241899961945, 463.9965190052887, 0.8663732787513986, 0.884532964510104, 0.901322303319113, 0.9445175989298128, 0.8139729615897527, 0.8599897013100335, 1.0096030303542034, 518.3674678208203, 256544.53642128265, 36.59732360240989, 922.3956617332487, 1090.1156264005797, 90.60357926704754, 1.7759965235469255E9, 0.0, 2026-04-12 20:22:03.548
0.0, 0.0, 6.712341466872806, 57.16837081451237, -10.147287429891996, 124.55064287677278, -8.147852840758759, 151.36688653186073, -80.606255256412, 447.3994835136701, 16.39388302369963, 210.21002767468752, -27.80282308471581, 248.66973083018382, 51.54798842560879, 158.76161146181852, 209.1366124034076, 0.9750868509917533, 0.9050185857490779, 0.9567658222293066, 0.8925044886827586, 0.8850092145705207, 0.825205979205631, 1.0376758105117327, 472.7541774351022, 254445.36607440244, 36.59220325660197, 911.0793504129338, 994.96387455101, 84.17417523104506, 1.7759965235509384E9, 0.0, 2026-04-12 20:22:03.584
0.0, 0.0, 13.940457551019026, 41.101414369374574, 20.823788821497743, 76.32036363051596, 11.028513694643586, 115.15825580712138, -1.32762825941208, 328.6742678241417, 24.024249247797357, 240.31156001167037, 1.9209231103818212, 320.2191466732156, 7.551083695636777, 363.1989094677557, -102.26197429263868, 0.9734138104178022, 0.9344364620988183, 0.9046018884138701, 0.9087993132317335, 0.9729624277490244, 0.9844891353964466, 0.9644914181992048, 450.52789841589373, 244602.36088951316, 36.60926687892524, 1095.4815177710243, 1062.3051819044624, 96.75512829810938, 1.7759965235549276E9, 0.0, 2026-04-12 20:22:03.584
0.0, 0.0, 21.42860016868075, 25.48566191566042, 48.98256649500495, 32.994676385926894, 76.94459136515616, 35.49897180289815, 225.82084989297385, 38.44898881845324, 185.43598071615267, 67.95062643224963, 209.25657504388317, 4.071699237835517, 307.12557867568177, 60.58113132037093, 380.54753613853705, 0.9469300084279796, 0.982071186693266, 0.8657444603179538, 0.8036473547022124, 0.9745941903172676, 0.8770072400970503, 0.9260177466083673, 501.24007571518604, 245294.1909803284, 36.59063294213923, 949.2743719487293, 932.6692903983577, 81.96628462444806, 1.7759965235584278E9, 0.0, 2026-04-12 20:22:03.584
0.0, 0.0, 28.983349209029782, 10.712134595534192, 79.87204548028436, -8.876539784571328, 118.75974931137446, 6.546791525444391, 158.11740000586502, -39.20845139099737, 208.256480096061, -75.78469055601238, 535.5423955185996, 32.12366558749942, 207.27014557019515, 22.894619358060226, 253.62602896219673, 0.9393580100553586, 0.8399141572275032, 0.8615813992835898, 0.8482864482544246, 0.9507042503809721, 0.9401075771673296, 0.9793304007672115, 465.0395708587575, 266441.0108512944, 36.60662235160699, 925.5728447750826, 1005.8628983163798, 99.24926934800396, 1.7759965235634844E9, 0.0, 2026-04-12 20:22:03.584
0.0, 0.0, 35.67522863378715, 2.525370656652914, 99.82085893926671, -5.268152612520147, 164.38203633822866, -42.83593753221628, 165.70599881639393, 20.38707479838493, 130.50685366797953, 275.8748940088814, 127.89699026838692, 319.47727304819466, 59.85329447295115, 484.1533168398104, 37.85134826664628, 0.9700076134002494, 0.9967373392156694, 0.867506507868372, 0.845531577574887, 0.8915366938171106, 0.8758512087580206, 1.0414048908245586, 539.5425669158268, 230280.53005010055, 36.592924942871065, 983.7153631745746, 947.6347822441809, 88.70212602461858, 1.775996523566976E9, 0.0, 2026-04-12 20:22:03.584
0.0, 0.0, 41.8749246756483, -6.848145803993148, 104.35038522193918, -1.8232356030279178, 97.31448679121456, 47.37521976740791, 45.08884526352704, 173.21056277130322, 29.740321641076093, 497.52516452900437, -54.774433747126835, 234.8076772384756, 171.70986250959737, 142.2335253183636, 280.91214321111727, 0.9164427538505614, 0.8635350209585123, 0.8692182970043204, 0.9230271601811139, 0.9358920568730215, 0.9572169439515364, 0.9052816364609252, 503.1018767208619, 246876.11940459322, 36.59054066002288, 955.6596817513988, 1021.277263202143, 83.23927908675866, 1.7759965235709445E9, 0.0, 2026-04-12 20:22:03.584
0.0, 0.0, 43.81887612972687, -6.821437497435916, 86.27044040232917, 21.446030575879423, 48.83389975975142, 111.28876472129943, -61.25481835075311, 199.8988760624426, 23.636800085215384, 129.21851839549953, 190.2331492251855, 62.25171870424626, 613.8674197870232, -193.38134719922095, 368.27279197312794, 0.9511971353538661, 0.956044802682107, 0.8844990982866056, 0.9527356162981054, 0.9646203968146233, 0.8920065744405453, 1.0720237405539197, 495.94150724996, 275046.43941136316, 36.597802246457, 999.4797094249603, 1055.1388281817447, 89.903346140127, 1.7759965235749493E9, 0.0, 2026-04-12 20:22:03.584
0.0, 0.0, 46.19711475732854, -7.9028920346200024, 67.82363852962283, 64.26751884278298, -17.90059383937745, 164.77608884086447, -44.701849117149365, 122.97904459054514, 168.27574929336163, 24.464114004180075, 200.16528056208665, 70.4481490000096, 138.5591974135537, 462.67906960471737, 28.539138704527346, 0.8139088604970918, 0.9533808709267181, 0.8090770772819659, 0.9170450406605778, 0.9643298013311222, 0.9123830893914365, 1.0110947474312677, 464.38211170765913, 242520.60481731256, 36.59687601383088, 1088.0839690161606, 1000.9928927680867, 87.1133844663932, 1.7759965235790954E9, 0.0, 2026-04-12 20:22:03.584
0.0, 0.0, 50.85090846362937, 0.9445505894605226, 38.69334813025947, 99.06747299096452, -33.36359696207977, 122.16740229570757, 93.2916735940114, 31.428630529866048, 445.22876821010846, 48.829408597239556, 102.92914131411314, 261.67082573665857, -26.304446738258974, 564.2441707065577, 415.9910893489513, 0.9730166791818159, 0.9459317033522282, 0.9395514003469739, 0.828093607003876, 0.8433819658100024, 0.8822848269996165, 1.0422602364672753, 531.1375426153741, 262440.3349837267, 36.59825719982851, 966.038747579196, 983.4832240991367, 84.28893110941172, 1.7759965235830517E9, 0.0, 2026-04-12 20:22:03.584
0.0, 0.0, 45.41863369834371, 14.86753234134085, 17.1627067073669, 103.71599225631917, -4.559809047583144, 53.156586124169024, 164.57212189094412, -60.728045094505745, 250.67149791220527, 205.17293110465505, -89.56402258148253, 234.27100783498565, 206.45517075814695, -216.600124245075, 644.3833451603147, 0.8406045536343296, 0.900395893392331, 0.9982325115252851, 0.9014903678332263, 0.9990505896592424, 0.8194730105658836, 1.054087382971978, 476.9189049198416, 235603.3883970341, 36.60454525951387, 1034.4088348312273, 903.0972376445222, 99.67791287003452, 1.7759965235870688E9, 0.0, 2026-04-12 20:22:03.615
0.0, 0.0, 43.816696239874425, 28.952333037767175, -5.771943300812445, 98.03477864924265, 59.86738991349595, -45.261174537874254, 210.86960264201807, 93.7955966051475, 7.4456654277256575, 293.210480182184, 132.69391030409307, -133.5497557798991, 192.0192628137085, 172.4875338183765, -88.76757008978984, 0.8669711984023281, 0.9449728598892878, 0.9576814864346189, 0.8306500620012699, 0.8508365503705214, 0.9038915612871389, 1.0429704659641095, 538.2937346789582, 275923.2845936132, 36.60148441141352, 995.850877590541, 901.3253282348252, 98.8326939402003, 1.775996523591205E9, 0.0, 2026-04-12 20:22:03.615
0.0, 0.0, 42.61672652269645, 46.59800072804923, -24.061964132355214, 82.35560458852497, 127.06464715145621, 0.3233300111856181, 83.33944772069485, 157.4903821771594, -29.87152526623612, 33.348454713156215, 208.83695906761886, 164.7253949838684, -32.91938817766183, 244.81063638808257, 159.23191142269656, 0.9780542873243255, 0.9380007576522574, 0.9070362873326511, 0.8929534791614216, 0.855848734885711, 0.9825156936705594, 0.9646514094368996, 510.4471781227045, 264738.72767226666, 36.59280999042528, 1033.7346762612517, 965.811399017533, 86.90013497957851, 1.7759965235951865E9, 0.0, 2026-04-12 20:22:03.615
0.0, 0.0, 34.47007565347468, 58.47675236316064, -13.703519041067793, 39.36314202871356, 157.50114956516273, 39.53232034798475, -2.8094597695263133, 196.12348336042317, 191.84402172133338, 7.734127712101582, 137.8650718720288, 663.2918026587255, -37.76505124584554, 8.840804952127627, 495.6179518804318, 0.9668362112266867, 0.9834627777299824, 0.8213280461609048, 0.8908244567105952, 0.8461498642116269, 0.8052312482485454, 0.9646149852709359, 497.91344849601, 247366.02482518178, 36.59005437004341, 1049.4382570856058, 1059.645807995966, 94.06261485986528, 1.7759965235992057E9, 0.0, 2026-04-12 20:22:03.615
0.0, 0.0, 28.733283711809413, 66.73228892193185, 12.555288748960756, 5.923886800177691, 132.85858870713133, 117.90767399745468, -18.779316859566137, 53.30819832436216, 212.78881127873308, 109.61055443266007, -68.22760045084931, 400.61384829544755, 263.2355845102289, -9.873404803138442, 62.992935274106785, 0.9264909445371362, 0.9049514317108326, 0.8826265379363767, 0.9315794871233501, 0.9836477141870513, 0.9333698142937704, 0.9392142863944066, 460.84825060739644, 263257.54259676696, 36.59272535827484, 959.6325338948844, 984.8618393230051, 94.15395314938165, 1.775996523603322E9, 0.0, 2026-04-12 20:22:03.615
0.0, 0.0, 22.085034948181608, 78.16511900060533, 33.345410389186775, -20.267777324750284, 70.56228322497935, 145.3197889222609, 55.97868427353217, 15.562231217392664, 117.03917303509358, 221.75469189320688, 70.30993141883202, 41.556368530344656, 197.9793168648688, 425.56166105579916, 131.50431603355233, 0.9535776676705482, 0.853540646841443, 0.9690811433054446, 0.9045193204089143, 0.9460672900609285, 0.8400200821690802, 1.0118974411565973, 496.4225730295034, 263189.3131089339, 36.60271882721694, 969.7892358156612, 1040.053155531314, 83.48641553589057, 1.7759965236072931E9, 0.0, 2026-04-12 20:22:03.615
0.0, 0.0, 14.668726529406149, 68.74816330446288, 65.41614627353138, -5.902181149146855, 7.988024264974925, 156.73810022434205, 152.7362843220064, -14.308904828067085, -76.37518502539902, 144.5340303899094, 373.7987003705192, 95.30506768586602, -67.82935099457904, 143.0457244822463, 468.7130590379713, 0.951990057421716, 0.8458985222919213, 0.8948617864126861, 0.9059706791640508, 0.9717277807417418, 0.8592347714003358, 0.9624775753019146, 517.4722713815739, 253515.36097637468, 36.597573971237146, 909.4807395992884, 1062.0233204569824, 80.9189808950363, 1.7759965236112661E9, 0.0, 2026-04-12 20:22:03.615
0.0, 0.0, 8.990651093756352, 60.52307825748246, 76.95956114470019, 23.86029636340522, -24.477095926343466, 64.553470089024, 221.50375284970818, 137.99931704171277, 40.598345551023996, -23.664321732149972, 174.18441676175127, 277.3859382360862, 152.09500473399197, -30.613597929844076, -75.210686691966, 0.8201783074545582, 0.9801864699489763, 0.8578672488138566, 0.8421288546964909, 0.8427366977443416, 0.9105679913133599, 1.0152217661034557, 509.8864541402155, 256702.10396026395, 36.60227437594335, 1014.8152993685793, 950.3625416019574, 98.63809661130874, 1.77599652361552E9, 0.0, 2026-04-12 20:22:03.615
0.0, 0.0, 0.7334311971382128, 48.64170952604282, 90.70468775231726, 60.59435519704973, -9.61127978392011, 10.298553300248301, 103.27094206405428, 235.2798488773327, 157.34396020910722, -27.207598928311455, 54.36729355186941, 135.8646147914374, 217.18157670165348, 235.6256158990035, 32.82807337805845, 0.9134371720442097, 0.8188550020951203, 0.9070413243837111, 0.846514570060673, 0.9834156644425803, 0.8224813843673379, 1.0665099404072198, 538.5160853745357, 234110.25866497334, 36.60196328592191, 973.2756953094874, 1027.8132629929817, 83.62115963645581, 1.77599652361933E9, 0.0, 2026-04-12 20:22:03.649
0.0, 0.0, -3.3712200090917968, 36.97879938485482, 90.19465834329547, 102.14622896113755, 37.71589730039214, -59.524068691105185, 8.194658448734515, 143.40052976545664, 277.6446765199818, 177.8942359764934, 79.00983294751732, 37.78925809977672, 25.930762094859176, 288.6759154067415, 326.6363362137858, 0.8728969844723463, 0.9842743955861023, 0.873927748913901, 0.9238787124981965, 0.9348177498417866, 0.941180236692131, 1.0495176203933014, 534.3285682540395, 249483.94723816792, 36.6090011765769, 1049.0184142306905, 985.9673206097942, 83.28934442825022, 1.775996523623335E9, 0.0, 2026-04-12 20:22:03.649
0.0, 0.0, -4.297500218027803, 21.18053554368213, 80.89015362414814, 123.40151372892822, 93.10247969307869, 34.543461906835795, -8.733667310142565, -20.629591060195565, 130.0552356982873, 326.73718151343655, 295.8798465588335, 138.06996500474435, -67.56172823446755, -72.51719416300418, 84.85191219615304, 0.8120325752257402, 0.9413714512344721, 0.8735636413532107, 0.9304910202011697, 0.9610826488912317, 0.8458174783606319, 1.0341299054187292, 528.895867954697, 242635.34802725716, 36.59261431300537, 1074.3851239665955, 910.434330762666, 81.33610902379606, 1.77599652362686E9, 0.0, 2026-04-12 20:22:03.649
0.0, 0.0, -7.105323465070732, 8.822628718331693, 51.714295888960535, 120.1855777125137, 141.08468667411992, 116.65871523183515, 45.03409257726686, -28.53354809535996, -76.28891871769201, 83.33389338666635, 240.78039881582714, 241.20633286369275, 241.26006100993686, 159.08166569672187, -5.427139632194525, 0.9450619823026761, 0.9675400351297866, 0.9861583746819828, 0.9015406416623829, 0.8861233377646841, 0.9484611705133802, 1.0854411089499572, 495.1759336397029, 237037.64904975938, 36.594157682951014, 900.7781796167379, 972.6279206151886, 81.45801995058008, 1.7759965236308227E9, 0.0, 2026-04-12 20:22:03.649
0.0, 0.0, -10.672025291130531, -4.195237819941681, 21.798204811951397, 83.56161765489298, 159.69965067411601, 189.78770380443103, 118.94324735124269, 71.4371062119913, 33.419742119307784, -83.32086216765964, -85.15555530973583, 98.4097020854291, 502.0012824346169, 292.31312630197965, 496.66218032512717, 0.8176776009714978, 0.9191300893826898, 0.8150032143093299, 0.8519455310863313, 0.9603567450485025, 0.8634046083949602, 1.054974512160321, 526.6004907416133, 277959.80286907876, 36.59991145597434, 1056.7129533776006, 932.3766936327768, 87.06512136775099, 1.775996523634812E9, 0.0, 2026-04-12 20:22:03.649
0.0, 0.0, -3.993541590217415, -12.582121628464272, -6.19132074530085, 33.71365667357848, 100.71070855268052, 168.1212509129544, 222.84864251867165, 189.32274659714147, 162.30663779048706, 99.78478663683444, 46.76964522040616, 41.88829811047931, -31.70316618103533, 97.90614323038821, 141.35376890499745, 0.8512988923369361, 0.829410595443431, 0.9953178565321902, 0.8949087909006987, 0.9312703764270936, 0.9581346269333982, 1.0817418782508468, 457.38230513061245, 257566.45346242434, 36.601739573036895, 1079.4366375706174, 958.4492244365176, 96.74478233804277, 1.77599652363834E9, 0.0, 2026-04-12 20:22:03.649
0.0, 0.0, -4.294995429984997, -14.595895936001561, -5.555045618766584, 2.8850693731332555, 35.378427421913784, 75.0262824661857, 149.62208218555102, 180.52825543587585, 192.2734418710871, 197.76096503339159, 528.22761410985, 164.4792232147387, 221.58862668260747, 3.947373622404996, -83.78009850938906, 0.843914687961935, 0.9628522289719735, 0.9250445221572622, 0.9368026632043093, 0.8802429414423382, 0.8570018510084808, 0.941814847540808, 509.0368660917497, 233044.31129267317, 36.59148263016307, 928.6335438640609, 919.7118593027901, 80.05297222300977, 1.7759965236425972E9, 0.0, 2026-04-12 20:22:03.649
0.0, 0.0, 0.8079686845219669, -4.994915911413749, -14.97430547023712, -29.40310126416243, -1.3461667266039115, 3.296786583614278, 38.72228506379085, 67.56755389732564, 127.09676867489172, 165.86874272111191, 506.9198966339375, 344.5030946415379, 326.5925804823896, 775.7756673803484, 658.1230935179271, 0.8204603262127952, 0.9963717280077008, 0.9259767726724172, 0.821401004469927, 0.9357859738102626, 0.8196003378967913, 0.9269245536711396, 475.02692215601655, 258378.61359675074, 36.60255674516509, 993.9546102191871, 910.272478628305, 83.72055615322905, 1.7759965236467733E9, 0.0, 2026-04-12 20:22:03.649
0.0, 0.0, 6.985916933446914, 4.846272604860204, 4.047117988464926, -6.026964511018875, -16.186592303552032, -41.13138866124072, -24.08715910794389, -34.21520770027625, -65.41770891133166, 0.5992325575709287, 35.904262228161315, 95.45173232011669, 112.9106867593236, 255.49294059657498, 389.5673651802269, 0.8359948688289626, 0.9091300276077513, 0.9505995330642715, 0.9544215146631941, 0.8405530962381571, 0.872434839829007, 1.0441500585864427, 544.543796759543, 278566.62520637613, 36.59531471505262, 935.1250944063551, 957.4808550337265, 84.38787559327001, 1.7759965236501324E9, 0.0, 2026-04-12 20:22:03.682
0.0, 0.0, 13.815264861198317, 17.119123760030423, 20.23685116902502, 27.206886443088038, 27.012723280310595, 21.74011326230383, 11.951133949764866, 8.309694188913113, 40.889210355209606, -85.33240656450914, -96.85616827796963, -87.90670756527479, 41.53350542794787, -116.510507091271, -210.67460277865985, 0.8118092738393237, 0.8715852297969543, 0.8474435410788029, 0.8910098487615549, 0.8756042610350873, 0.8204908969603674, 1.0449249853046974, 526.5972075515365, 256956.7961483938, 36.60428356494854, 977.8260079525486, 914.7788276268667, 91.2952108489762, 1.7759965236550891E9, 0.0, 2026-04-12 20:22:03.682
0.0, 0.0, 21.37305553587403, 34.73531634737412, 47.73777652890172, 66.7901629237837, 75.53653828747943, 103.13708231796255, 131.31973894797653, 280.7417501672161, 149.9408664209688, 352.0561461112617, 187.47936901251234, 249.40991118340838, 235.93150792801168, 326.579565602073, 398.56113821957047, 0.9068979567774021, 0.9823254277682069, 0.8861871385245048, 0.9794439589763754, 0.9057737814198411, 0.8578526298574796, 1.0089560478273976, 451.2269797991866, 263680.48127145093, 36.609268279813, 956.9147729964365, 1019.7517073409392, 89.83313045138416, 1.7759965236596005E9, 0.0, 2026-04-12 20:22:03.682
0.0, 0.0, 27.94498884021906, 49.84022686927467, 71.00216248682742, 104.88807270115618, 126.37056547858157, 330.3290907181878, 200.11246629731738, 429.1955643032114, 210.13350195704447, 268.5244972022733, 240.83769628893901, 338.38808570277433, 314.4035863500585, 290.4971397568105, 178.90507352107065, 0.832286014493975, 0.9349667138187682, 0.8323751339965889, 0.8430781594025927, 0.990746558269301, 0.9129064487537423, 0.9145203798609796, 519.4217184658007, 276393.8037690334, 36.60141127267262, 938.4910671586897, 1041.063627238465, 99.07611373263933, 1.7759965236621192E9, 0.0, 2026-04-12 20:22:03.682
0.0, 0.0, 36.020260609174436, 59.19360151577449, 90.06724476696999, 135.83977022390974, 164.7971055384745, 346.54118222992975, 152.43760888785943, 135.83225659243743, 126.63078313159642, 87.86266680341204, 68.73770744424361, 50.38443503536182, 81.95222074576432, 67.04036692630069, -12.7298206186384, 0.8006562400479664, 0.9769516851163084, 0.9337481510346571, 0.823331927076746, 0.9993462606594553, 0.8780436112557249, 1.0921126514093245, 458.2319498100842, 278185.4466524718, 36.59652690636362, 930.2892393612902, 1057.0510980548252, 83.26635756442855, 1.7759965236671245E9, 0.0, 2026-04-12 20:22:03.682
0.0, 0.0, 40.641285006348554, 69.78563478384274, 105.29055149845547, 103.26615259146828, 123.44132633417834, 175.0483214817275, 54.44128758585764, 41.921310529921655, 9.207064079882798, -22.505168081160065, 11.704894614968296, -63.15797894807318, 84.2771463079541, 171.84929764014169, 275.81108121505537, 0.8470697302075172, 0.9450308347216007, 0.988776802564325, 0.8163704261193431, 0.9507339186722231, 0.8789490635163291, 0.9801879952143698, 484.2159540021065, 276472.3105998834, 36.60418754271793, 959.7637397445432, 1014.4488763344419, 83.22522189575014, 1.775996523671125E9, 0.0, 2026-04-12 20:22:03.682
0.0, 0.0, 45.995391284016115, 72.26385244551159, 90.33393300557981, 84.95514713878251, 50.83506936837228, 28.037105733077084, -38.995097020838614, -19.560732322874728, -44.23516350965116, 87.87058705444117, 140.21284495074525, 543.9213680726932, 229.79682555255062, 382.19959282434775, 334.8210968547554, 0.8774677339723892, 0.813623580527272, 0.8090185574187964, 0.9485466798629224, 0.86696580905056, 0.8581692271681646, 1.0944500092700216, 490.6365586360961, 251055.76874515074, 36.6065875908131, 926.4073844915589, 958.0406413619088, 84.39033512848947, 1.7759965236748338E9, 0.0, 2026-04-12 20:22:03.682
0.0, 0.0, 49.42469274744539, 72.17758326705548, 63.65989851355095, 35.59170396573818, -7.546531956717374, -24.33027795380366, -33.635994332368114, 70.65342408605075, 146.05155424877438, 228.80118864102874, 260.7647295788693, 469.60017105604186, 137.7694768304765, -82.25699424444358, 75.21587656620602, 0.9261388547092627, 0.9185387825359191, 0.8334056358548375, 0.8898543114837691, 0.822545470359971, 0.9294652936747886, 0.9960071529923513, 489.4273657415469, 251547.78367937251, 36.59679464241807, 962.5834863850343, 970.5221321726913, 83.10728642257311, 1.77599652367816E9, 0.0, 2026-04-12 20:22:03.682
0.0, 0.0, 47.50498710561744, 61.95128157747314, 38.63791505238956, -13.953508728692967, -27.655359137098415, -16.56086557490606, 170.37810135014334, 189.94295980430138, 480.47878777315543, 197.2916787852044, 82.83245333765768, -107.97026606323294, -24.870108089880006, 83.65772985948905, 180.97944346805957, 0.8124952008288411, 0.917832505591523, 0.9460989833828736, 0.9750930902646288, 0.8654979853136384, 0.8266468435109109, 1.0030459237029545, 522.2877766372709, 264530.21976863133, 36.60792761106259, 972.1753363551643, 912.0023671114292, 98.8265585479524, 1.7759965236826108E9, 0.0, 2026-04-12 20:22:03.682
0.0, 0.0, 45.78393289531587, 45.74855604066022, 12.24292616304832, -11.15973913687624, -14.93634019917954, 85.75424183182935, 170.1834776413741, 198.94869843049725, 246.10157088978406, 24.548180297374188, -138.68364118523323, 41.26239607819184, 254.70489558511593, 391.9192070187728, 342.8046074472803, 0.9902173259419617, 0.8572948963066465, 0.9805363491413169, 0.8747562680276518, 0.9824537187685, 0.8722471011128207, 1.025168718710109, 500.4427594482465, 242942.82920203987, 36.59107422172175, 1033.9085177815211, 944.2626995150001, 85.30606115225613, 1.7759965236859305E9, 0.0, 2026-04-12 20:22:03.714
0.0, 0.0, 42.52348523448052, 31.157560277723658, -15.96677723596465, -2.477028724358192, 59.91041426538415, 169.03103707486736, 149.79106897857332, 87.14540227085654, -70.5807096499733, -45.52272095708662, 124.00879799663618, 267.3286654004653, 200.1171282516949, 133.78853863087716, -26.22031615635433, 0.9508488508895542, 0.9485815973865931, 0.9663330520391235, 0.8906197313326611, 0.8492213024949334, 0.8787352250882838, 1.0430987250489392, 532.1724017847484, 255966.2387410022, 36.60180774166184, 1088.0853921759779, 1079.4059130953658, 85.63852910928512, 1.7759965236909733E9, 0.0, 2026-04-12 20:22:03.714
0.0, 0.0, 42.31214605065277, 16.329725041662023, -23.69356290893569, 23.531901591917954, 107.31049946250265, 183.72543283318456, 83.84202226977455, 0.8788049151207247, -17.61294730107882, 171.7118924808426, 383.8310113517636, 204.01252075664712, 32.61112737107045, -55.198749978764596, 158.61640675201528, 0.9101454234782719, 0.9099140185337776, 0.8316024373774915, 0.9048255221779887, 0.8541012833003964, 0.9282486176192674, 1.081160292810189, 538.8562546292217, 251664.56728999107, 36.60153986695223, 1033.9292966718565, 1059.6899183003761, 95.84150101411313, 1.7759965236949787E9, 0.0, 2026-04-12 20:22:03.714
0.0, 0.0, 35.646737272850885, 5.005048668684825, -9.828064141728603, 65.83646282575113, 169.93668840745306, 107.83347366347095, 6.014323234625323, -6.573900307463447, 146.50893563101016, 328.45388498736804, 127.09463925641933, -94.35085103388144, -8.431218996397888, 377.47827191189964, 473.39302636932723, 0.8461250341712167, 0.9237254804067613, 0.8370342449330442, 0.8992133332536786, 0.9648715122186636, 0.9732778581512168, 1.0977995145768014, 473.1705423875713, 230688.48835419, 36.59024179658464, 1015.803342494753, 1023.4859799177733, 86.47722210879759, 1.77599652369909E9, 0.0, 2026-04-12 20:22:03.714
0.0, 0.0, 28.934712637304564, -12.562283511942042, 9.825834606228725, 108.61626350359484, 127.6794957832687, 21.065891413059404, -49.914977682086146, 139.72628565401288, 194.59255295234865, 110.18650440010883, 24.795672847804553, 80.92220000300432, 660.0789434957358, 263.1428692182589, -108.39239246449807, 0.802477012371469, 0.9075557493327367, 0.8610857679634899, 0.9915095639253738, 0.9977105287472973, 0.86964638474663, 1.0003811727413456, 513.0369538560041, 276743.6303444859, 36.60370037311921, 1003.6444022221092, 931.3674882592103, 98.07658591876282, 1.7759965237030025E9, 0.0, 2026-04-12 20:22:03.714
0.0, 0.0, 22.117494842803296, -14.41427630243038, 34.22391784600704, 131.79196421133764, 69.5438831164152, 4.275047756194809, 60.523826221428315, 243.45744579357887, 113.29124583487453, 24.5645937100726, 95.56517655394485, 247.98873381302974, 370.67462484199854, -114.38403024775903, 200.4206418690165, 0.8720558012973583, 0.837037799140843, 0.9774674059720737, 0.9914546047901677, 0.9096579616393318, 0.8434463336542347, 0.965641178863065, 459.9530456302062, 264854.9129057104, 36.600761019830635, 1074.286978638902, 908.397715894594, 93.9596811916397, 1.775996523706732E9, 0.0, 2026-04-12 20:22:03.714
0.0, 0.0, 15.136656622242324, -11.160897271008665, 65.09151290967375, 118.11137887799732, -1.964773406656093, -12.55550364182048, 345.0855980852329, 321.56569890317735, -9.91453836003194, 125.99870840736361, 596.8324660195882, 338.6960457535768, -62.71438826633363, 346.5668035881479, 656.5794297824173, 0.8921514346187727, 0.8500393461421321, 0.9996794880510483, 0.8885241260349759, 0.9434523630104387, 0.8307517482460082, 0.961563426721884, 474.58112623600346, 241012.53751143254, 36.60028786856362, 1086.3829950188062, 1000.0856304763835, 86.1532928145997, 1.775996523710271E9, 0.0, 2026-04-12 20:22:03.714
0.0, 0.0, 7.438527864752473, -6.254177863456292, 86.23258321192104, 80.48155918352198, -28.937244270495526, 162.28957054848854, 320.870365369787, 32.926932332630656, 33.08219120527784, 458.6619513936322, 335.0332397322421, -36.83181086394862, 339.6408123588547, 599.1573205024192, -37.70742176017268, 0.981333990315648, 0.8883348021802275, 0.9078541005700961, 0.8506430516983027, 0.91444014796289, 0.815480226066417, 0.9028562780874759, 538.5648417469735, 252054.6419349282, 36.60026233544054, 955.4915902143654, 997.221780183151, 93.91618645980473, 1.7759965237152605E9, 0.0, 2026-04-12 20:22:03.750
0.0, 0.0, 3.7941713937930928, 7.114800246050862, 103.01976602192946, 36.46649091510472, -28.199912546326104, 127.37126460502637, 118.02600992035354, -33.05384080523507, 151.8124051697099, 167.56483876018518, -71.58835883389185, 126.44036345768541, 337.87735030471754, -28.180395856455846, 13.40662754481184, 0.8067456689650366, 0.8016079350545986, 0.8176945962410272, 0.8425923353271431, 0.9176162280516428, 0.9397560625830282, 1.0370295953327808, 459.582268336129, 239281.15457716287, 36.609547363210716, 1046.5608825746995, 1093.8017877532377, 87.60332041226536, 1.775996523719262E9, 0.0, 2026-04-12 20:22:03.750
0.0, 0.0, -4.6470262381947265, 23.091362045712895, 83.109138577788, -0.8824629383142337, 38.08002680674815, 167.44245437024176, 3.833058015226044, 62.92000401188682, 246.18902838464473, 41.573596985785784, 51.12907952462379, 291.358883732146, 57.85989159795976, -25.8736587479666, 362.85365052331144, 0.9887265972861122, 0.9261829180884108, 0.9792326176167477, 0.9460560381157413, 0.8822287760448405, 0.9073100821667509, 1.0517341995647764, 508.3456180514074, 265418.5617542793, 36.60979808684624, 1095.1243944779412, 1087.6886260458753, 98.6663596032667, 1.775996523723146E9, 0.0, 2026-04-12 20:22:03.750
0.0, 0.0, -5.650938130687258, 38.14859013510797, 77.24846661623374, -34.76291500621251, 94.40277761390017, 118.79978494455607, -10.345797669687968, 201.9318474949544, 132.75789508222113, -84.41032110551271, 285.4101412614326, 118.74087113575973, -87.32845669696442, 247.04791652642223, 31.621738942114035, 0.9585677610291167, 0.803637570869204, 0.8413188220268832, 0.8255538251456309, 0.8098831522345228, 0.8288189647673408, 0.9740007546673392, 526.0647024046102, 264389.60764570575, 36.59661423002325, 1085.4773772877095, 948.4501105081708, 84.2140369436093, 1.7759965237271438E9, 0.0, 2026-04-12 20:22:03.750
0.0, 0.0, -8.057294257823397, 52.779073133968964, 53.56001711159133, -17.601844094423754, 130.22478704279283, 31.22017712975174, 44.138193297808236, 184.04390665513205, -65.46436569791265, 164.08961457702145, 210.6709210288784, -9.305195499369091, 358.3922764293592, 141.8006840097613, -38.18913659767787, 0.8615385696041312, 0.9125391107876689, 0.8633969124975105, 0.8998424506453333, 0.9708115738710795, 0.962155398265209, 1.0118192483770585, 501.8070096584786, 264979.77376408817, 36.60748727460328, 1047.6989356215533, 960.5285222660766, 98.78193638812128, 1.7759965237311664E9, 0.0, 2026-04-12 20:22:03.750
0.0, 0.0, -6.64820320348586, 68.43581513360667, 21.560462362234286, 27.678597881530845, 124.45646593109073, 2.7288003598396813, 136.18756451596562, 100.73374372419532, -48.10591580195057, 309.6924154825358, 34.0695433696274, 191.86744860473507, 252.05935642026728, 97.58442089414542, 546.4543629232804, 0.811485637088103, 0.994107586292513, 0.8817608915284606, 0.9052852338836949, 0.9288814914955762, 0.882949373245086, 0.9138249128647041, 510.19793774448283, 236615.29081148282, 36.59598129107989, 961.5036930633819, 963.8629345764853, 94.02830339433702, 1.7759965237352064E9, 0.0, 2026-04-12 20:22:03.750
0.0, 0.0, -6.745108116394295, 71.68455059053491, -3.712299353266289, 64.7766904680178, 96.36606908128482, -35.2822952874462, 203.35682096095763, -19.22257116760055, 142.75105455526878, 131.57485880878127, -43.13362895984682, 328.62417267100733, -15.765500448721042, 333.2434142504793, 130.1828751741134, 0.912802268432635, 0.9849807689612763, 0.9555266719617442, 0.8289332876992589, 0.8915434715629035, 0.9069495172114267, 1.042740250374992, 476.54880781201945, 274305.81410084147, 36.5997667837527, 959.3023164740747, 1056.5122711927586, 94.7421111945277, 1.7759965237392273E9, 0.0, 2026-04-12 20:22:03.750
0.0, 0.0, -2.4050107328669093, 70.46030574843805, -4.5737188251613645, 98.28885451684056, 33.66627909826748, 64.92739718895267, 131.32397183362178, -16.307720507710698, 221.43774166696306, -1.3805938610379371, 303.82014481735814, 72.98437890988578, 123.28478272328461, 328.6784908086931, 86.41633100903222, 0.8092777136470044, 0.9862188931257444, 0.9086250042393843, 0.9828920542420264, 0.9569045013797669, 0.9437181508457778, 1.0094996406491934, 493.29117941048145, 232665.0014100869, 36.60337216065353, 968.4752309828874, 1068.3043707674856, 98.45978382734305, 1.7759965237431889E9, 0.0, 2026-04-12 20:22:03.750
0.0, 0.0, 0.26798928748094397, 64.07478638787302, -20.759303241052386, 130.34589760684742, -38.38760319155277, 121.1384806636633, 46.09956483387121, 107.3079073773086, 120.10921337663781, 69.4635371365558, 274.43670679554964, 52.48117026425004, 282.2259563732225, -187.64094537257557, 222.61814396435295, 0.885458559644282, 0.821192551548224, 0.9421640146878519, 0.9765282309729916, 0.9244636063485628, 0.8966052041970815, 0.9443482960052184, 496.0143082536703, 265874.9011079482, 36.6021809672745, 1087.747127159447, 1092.7749891582328, 87.34566631835372, 1.7759965237472765E9, 0.0, 2026-04-12 20:22:03.750
0.0, 0.0, 8.612984816335478, 58.720885404149186, -3.6721582599208773, 125.07631279527679, -41.85939323021965, 172.87565139771226, -22.024989224948953, 179.89576851202304, 21.774887754905393, 270.29627905044697, 33.498803707203706, 209.11369062381675, 118.91129937554722, 156.4525684734421, 193.1048911118583, 0.8813213410960873, 0.893794150409354, 0.9113660063603647, 0.8942282197246169, 0.948307934583008, 0.8393489415917098, 0.9492228369564115, 491.48136757789655, 229444.94662346726, 36.60656290691254, 1026.660617195901, 936.7799241018679, 83.2643062447873, 1.7759965237512684E9, 0.0, 2026-04-12 20:22:03.781
0.0, 0.0, 14.045408506985016, 41.87001366314212, 22.18945095199962, 76.73161925056509, 16.25305139406197, 112.45046911649251, -1.571122248977801, 160.46595031459992, -19.725788328738048, 282.9042604288687, -44.349115962263596, 329.14026542470384, 79.55201788304231, 247.17715219654838, 62.226953301227056, 0.809606800827152, 0.9856747267742377, 0.8251735219643996, 0.9991780178521535, 0.8343787300540959, 0.9400432084133074, 1.0728412543667292, 471.6019368345185, 240445.64713979897, 36.601835601641476, 1013.3033600463226, 988.7723723355411, 83.51339809516351, 1.7759965237552643E9, 0.0, 2026-04-12 20:22:03.781
0.0, 0.0, 21.522048560049925, 26.195428569657263, 48.839632123921106, 36.9135424203872, 76.14532315633966, 41.97991170194817, 104.07486868583042, 22.620985591043052, 171.8358486510627, 7.2542665824229005, 198.4025791960439, 59.17155701896938, 219.23640651407385, -39.310788260358265, 328.6431187050596, 0.821638366664953, 0.9471431025338105, 0.8690234593357344, 0.9548703273699762, 0.83502876471497, 0.8157473786187963, 0.9046581392762133, 452.4626005377886, 267163.0416269935, 36.602721789849625, 1030.5397413017006, 918.9583769686326, 81.49736946752691, 1.7759965237592664E9, 0.0, 2026-04-12 20:22:03.781
0.0, 0.0, 27.86752800385671, 8.163137641373762, 70.28056482064827, -4.401609885340861, 111.71671521694878, -13.161893535961084, 220.5295965113423, 10.711377781440078, 225.78910880107628, 30.57709122140676, 228.11087569823383, -49.767325568970506, 328.1092166731155, 43.80702419823048, 282.48464290293145, 0.8200011151311876, 0.8504540610037429, 0.8791290848004413, 0.8444921229619103, 0.9267540061730123, 0.82201517464243, 1.0968692871584547, 549.8320576948217, 262513.35811708274, 36.607326213396085, 1005.907276670067, 1066.098485356084, 80.92499544524094, 1.7759965237632616E9, 0.0, 2026-04-12 20:22:03.781
0.0, 0.0, 33.45650049071548, -0.8376812932875808, 82.93156042699519, -3.2580146471471565, 135.76105935318913, -0.5846219423194867, 168.7012709174646, 25.173821708260377, 137.5136359085314, 127.00728120314827, 49.94513324588432, 300.780277231092, 35.112172028012424, 457.4579795006543, -4.235352401013188, 0.8756529058597103, 0.8789676007255072, 0.9098324530164893, 0.844001046596175, 0.9816376596714825, 0.8181032698999995, 0.9370022645153496, 468.3729612904702, 251946.1257026614, 36.59224661585355, 1026.7205079155008, 1002.2735466840413, 87.13607958752664, 1.7759965237672744E9, 0.0, 2026-04-12 20:22:03.781
0.0, 0.0, 40.68964253202712, -11.642335668645657, 100.6590784075072, -15.157095435082283, 112.29918578908129, 51.93418663797634, 45.06002553989918, 178.22426417098202, -82.60354070061177, 335.1813180424906, 44.83831450542645, 282.49788077248, 24.741250643147055, 237.20944948159263, 516.2495937654156, 0.8516581683874521, 0.9699047057888152, 0.8591361768054104, 0.9327988125554117, 0.9232211027500982, 0.9687961633065402, 1.0839750917759334, 510.76526700928525, 233670.14297128198, 36.60652038459987, 1069.658858499153, 1085.638442584438, 85.52393699149837, 1.7759965237713263E9, 0.0, 2026-04-12 20:22:03.781
0.0, 0.0, 42.88235117275801, -7.849936082889101, 86.5592440525734, 25.955014853802187, 47.40573509179104, 129.73383132047215, -31.70010431564579, 256.7760794912158, 15.222987442486598, 167.0836699083262, 172.52274371589138, -94.32904696086354, 498.6601533072944, -26.388582892185468, 497.4736535767389, 0.8611487633194257, 0.856214335260447, 0.8040920521923327, 0.9629569376206858, 0.8549711496413605, 0.9399231182520752, 0.9750179772403241, 540.3034060628642, 270056.40736128675, 36.60004632794337, 945.4270261284017, 921.8251513123624, 81.3250687589134, 1.775996523775356E9, 0.0, 2026-04-12 20:22:03.781
0.0, 0.0, 48.56134638974921, -13.884962750325826, 62.597596280163884, 62.78932481155111, 0.7811383428359377, 197.57335474518743, -4.579558705747033, 124.58656589393479, 186.08155050057255, 11.898666778455706, 355.4084696595727, 81.78821769410483, 261.19880492056626, 626.2155463578418, 109.83132769303431, 0.8040995708729813, 0.882473228348934, 0.8560336151509191, 0.9613487942472562, 0.900345405404536, 0.8442045914241032, 1.0628770413759636, 537.7962487859878, 237639.50696728574, 36.600162125315705, 1089.2848164637226, 1013.4857851522605, 82.09915054972808, 1.77599652377946E9, 0.0, 2026-04-12 20:22:03.781
0.0, 0.0, 47.043142602011784, 2.372599971803016, 38.443783813330164, 99.19013125735816, -43.779801159639646, 143.24241116258094, 92.78957409423757, -3.4976999079917164, 214.34767459840646, 31.593461564253175, 98.25259151314702, 452.03677346118843, -86.43712586499026, 325.7688433923746, 226.52264116590067, 0.9215544717404899, 0.9575641678983128, 0.9344924614343685, 0.9333172429456246, 0.8262043848112345, 0.8016096292155853, 1.0347501855138208, 455.70319672352747, 275197.4954102339, 36.5900817245864, 1019.6695371888298, 1026.333045754399, 88.94834530800097, 1.7759965237828963E9, 0.0, 2026-04-12 20:22:03.814
0.0, 0.0, 45.38466777173912, 12.680791621272341, 14.004637425840887, 123.71758609625061, 8.394305718281352, 54.265409224010156, 217.0804792756562, -27.408450205126, 131.0284478210411, 227.55088144410894, -40.596019196489976, 443.46994511359884, 209.23355913525006, -197.97805382968573, 437.39226517229986, 0.8663010834531948, 0.8211527394554582, 0.8453202365221364, 0.9227014225253586, 0.905766997802984, 0.8991120168908212, 1.067975944457398, 504.0139764779903, 265173.7848915204, 36.59632262225463, 1011.1729981388204, 1055.8192888387753, 95.82728504988425, 1.7759965237868888E9, 0.0, 2026-04-12 20:22:03.814
0.0, 0.0, 45.574114431836776, 29.03225009913525, -3.8000000197903816, 120.16148870894978, 59.89693744768656, -28.127983044325177, 140.85192458626886, 93.86367623042271, 1.288717178422175, 222.46048319838206, 228.08630956213244, -176.53616172237133, 305.680226899517, 159.61417274200375, -185.13581945787354, 0.8757484741209369, 0.9011816340430444, 0.8955531830463636, 0.9557607626981725, 0.9273962962632148, 0.9002408504365998, 0.9964648826070523, 539.8113943139815, 278286.15967089706, 36.60059950427805, 1019.9566300342013, 1079.8515990944895, 95.85919772631387, 1.7759965237908535E9, 0.0, 2026-04-12 20:22:03.814
0.0, 0.0, 41.00289604232322, 42.77880982990301, -27.063188109410518, 85.52896773558216, 133.73898483181105, 3.4842750660756963, 83.95367807582393, 162.3410914004088, 48.05381373065072, 111.9666365612788, 671.6182862962805, 67.21165078861283, -3.4373573954870835, 356.9544178226287, 158.5741224187998, 0.9489056997965538, 0.8589300346336957, 0.9722828286282287, 0.9342999857890569, 0.926148824326425, 0.9886307996499694, 0.9728645444567213, 534.0610814938938, 228959.4935163181, 36.60729012523724, 1092.7281514037722, 922.0134667677105, 92.71550341429673, 1.775996523794364E9, 0.0, 2026-04-12 20:22:03.814
0.0, 0.0, 34.12180016611207, 58.3981330291492, -0.9034370935025251, 34.513596231097154, 135.6991755131097, 30.195543670588485, -4.686878879725299, 202.19790225316717, 139.6559666995053, -103.77228745629677, 139.7060673173268, 355.22529103495685, -15.192002485911615, -58.29729723256304, 369.1179805783468, 0.910805131092758, 0.8350895162020425, 0.8171986383170375, 0.9452760531114882, 0.9305861973097064, 0.9328279121388247, 1.0741525484556473, 496.18494908459974, 238982.53496990108, 36.594995244223746, 926.3564657819148, 1023.1863080663221, 81.5597264772741, 1.7759965237993696E9, 0.0, 2026-04-12 20:22:03.814
0.0, 0.0, 28.556244847039025, 71.86188195153767, 10.883789153391415, 3.7843691403042286, 136.3478555377783, 122.48756432518691, 7.267965021812472, 64.09803328067186, 190.69312505004626, 201.90015273615572, -117.51786307247787, 158.2669145561847, 287.9981474155949, -44.049507419884634, -11.204045103052408, 0.8829863268813842, 0.9130372592271795, 0.9868634991374668, 0.9261054540187875, 0.8054114863103589, 0.8012357130824156, 0.9144711358222885, 476.1715939629397, 259382.67032807338, 36.605165467384566, 900.0530185088406, 972.2938298951054, 81.15120860629612, 1.7759965238034422E9, 0.0, 2026-04-12 20:22:03.814
0.0, 0.0, 22.272797268792047, 70.27102722199062, 33.98380687678102, -34.97641424907765, 70.15937785173372, 186.6421383228767, 59.57046516765579, 19.743015980700363, 256.8134160489133, 214.1293918848204, 67.81015504373346, -144.88676855084162, 201.97244061375437, 487.57635447884354, 145.69030810912645, 0.926779036137401, 0.8929476286676712, 0.9381840177440529, 0.8752828372268912, 0.8482996008661098, 0.8287280636898404, 1.0162087493323686, 458.19373430044317, 256040.98031825098, 36.6009608424581, 982.85669380736, 1041.4096135746227, 80.93402823356716, 1.7759965238069327E9, 0.0, 2026-04-12 20:22:03.814
0.0, 0.0, 14.624581761518776, 65.94661384602222, 64.54619080203729, -8.188546307158447, 16.61851149292643, 154.48137935156018, 190.20416213630156, 40.48548695476552, -56.61006737942202, 155.92916891352178, 297.82074134675156, 86.04143617468753, 46.45082836169665, 143.59783420640878, 485.9410214607646, 0.8220341020828125, 0.8752374092983196, 0.881225603015974, 0.9546006226367217, 0.9835507539942271, 0.945426597694483, 0.9209417763104776, 512.4942937072777, 238533.2497792373, 36.592511438957985, 1013.8279859608313, 1019.9161198100792, 85.67019847326247, 1.7759965238110704E9, 0.0, 2026-04-12 20:22:03.814
0.0, 0.0, 7.963302317972179, 59.70019229144461, 77.17381858195972, 15.99838827063833, -44.53013609351201, 64.03348130128896, 153.0353936304931, 287.2049800593287, 40.75190156793465, 46.282744185399444, 182.46252761816297, 336.95800875840695, 179.01134339816377, -135.47369362822712, -71.23917760536469, 0.8222576286103109, 0.8103562887531598, 0.860944748513118, 0.9752051471615549, 0.9645528960190602, 0.8113574561401543, 0.9190981725750804, 489.50913508762875, 248585.10762191608, 36.59520172702414, 1008.5988170848879, 1008.7450745988081, 98.09468013762051, 1.7759965238149087E9, 0.0, 2026-04-12 20:22:03.814
0.0, 0.0, 1.9268107811589879, 53.566747692334275, 105.11063496860632, 62.09343591966364, 6.6014060404714385, 2.143938363198089, 102.39931354361495, 434.3073313813519, 178.57561267622773, 20.454443820095122, 0.3661736709237857, 137.91018258476709, 222.33021336085778, 230.82199510267492, 98.0507844220252, 0.9512004910855859, 0.8960053450691406, 0.9617420889019156, 0.829398225344515, 0.9208373729578955, 0.9523258395022359, 0.9388020632945425, 475.0603807586472, 264212.4213724554, 36.59358074392682, 946.4692358565186, 946.9686959291215, 89.41598026696911, 1.775996523818962E9, 0.0, 2026-04-12 20:22:03.847
0.0, 0.0, -2.5691049892379354, 37.18037639498981, 90.93423811808, 107.69801515425395, 37.44158559073957, -5.9261416103335876, -13.628383525257803, 258.61718582793026, 285.70654164561995, 216.46931942276333, 74.50634744954442, -3.510163944996691, -8.326134295242923, 239.1599367444386, 206.10579208882504, 0.8269466039298105, 0.8254337234256216, 0.9727832867027503, 0.8760456296282565, 0.8733205733565631, 0.9808328046476354, 0.9408415932179938, 495.10741009321725, 250398.61362522322, 36.59019009809725, 972.3669560091049, 1012.4140044819238, 95.00113453278513, 1.7759965238229668E9, 0.0, 2026-04-12 20:22:03.847
0.0, 0.0, -5.019527795882741, 20.766403324529538, 78.40606518189455, 119.13316144013646, 98.33922458076307, 33.3045772167399, -6.4204159307884225, -32.88065648017931, 124.14320091162274, 261.0684073336986, 226.6509907711024, 151.79066216972566, 72.5314238625239, 10.556842663064998, 147.48612360270158, 0.838950801099915, 0.9707607929861236, 0.9831735634760982, 0.8686742388891221, 0.8240327580235242, 0.8664201139064236, 1.024748850870215, 488.31972354452967, 249410.5862381386, 36.59822857018808, 946.9610938316929, 959.3847830777695, 89.29643633164187, 1.775996523826956E9, 0.0, 2026-04-12 20:22:03.847
0.0, 0.0, -6.4661231804848, 4.570203341269426, 54.67741932275658, 121.24827568957828, 163.35273867960888, 107.57246357156507, 59.577551170333564, -6.059169559747318, 28.85995562060512, 83.97152413896963, 216.59579580913962, 209.34990545475802, 266.54192147693584, 170.59261794223306, 39.56478453154347, 0.8709407109047429, 0.9090850518866408, 0.8908051873783952, 0.8810159966864832, 0.9736322393232412, 0.9062865354866684, 1.0461848115893784, 464.92566302918175, 231323.36965479044, 36.59313473051227, 911.6241365348899, 944.7072385652226, 84.52346456639636, 1.775996523831048E9, 0.0, 2026-04-12 20:22:03.847
0.0, 0.0, -9.31150227235991, -5.087138935222349, 27.132248242827558, 84.7311690776364, 131.8701794140986, 150.18944378671551, 253.6355603069486, 79.80807164674883, -46.9954477459477, -126.10755892965284, -46.87907819035618, 69.92122110013923, 187.07009057628758, 728.8401574693551, 728.2149114871531, 0.9601878476119795, 0.8315720764457597, 0.9452573767859332, 0.9644447138174411, 0.9094236967652735, 0.9939383983300075, 1.0321399639329887, 518.9027288765111, 245178.72688581425, 36.60075446952116, 994.9575944327457, 1038.2840630004937, 98.7189876322807, 1.775996523835086E9, 0.0, 2026-04-12 20:22:03.847
0.0, 0.0, -4.414908749729197, -5.413649608017096, 6.9679033305607945, 34.26174070577034, 89.72149495524445, 172.39857077639363, 374.1330776622573, 236.52693342282066, 154.50137649683091, 90.00314992928261, -28.368989939827657, -93.88302048338002, -56.00950598684756, 24.6358271944178, 127.70067134688176, 0.8238311682317393, 0.9300475320489797, 0.8645684201614893, 0.9868935405787759, 0.8468566280097537, 0.8759348743157801, 0.9548485230369858, 513.3592438341742, 247578.60297253242, 36.592189461561595, 1068.3930331536217, 991.4875849339825, 84.74431447426844, 1.775996523839285E9, 0.0, 2026-04-12 20:22:03.847
0.0, 0.0, -2.840057602376227, -13.984421583682249, -8.474616654616241, 0.10245554302622395, 34.76110406699661, 75.92548470627659, 127.21721597870336, 242.84860895844608, 217.3799918621146, 325.02589014107195, 265.8017315659157, 229.1260215046563, 235.01733155151712, 59.02820178318592, -114.35119031198622, 0.9874685852629242, 0.9184341798563626, 0.830533330674456, 0.9496442323693398, 0.9117016223443005, 0.8074761235005646, 0.9528120971224492, 487.1374257205874, 269114.6786882274, 36.608468051928675, 1033.083181699523, 937.3085049029946, 84.19850677421819, 1.7759965238431962E9, 0.0, 2026-04-12 20:22:03.847
0.0, 0.0, 1.0034948639247574, -10.906098257484913, -16.717477358594557, -3.410793427761675, -16.152398221310165, -11.431985326953281, 20.063803340092534, 71.94802393941592, 137.61177630928034, 185.70859139914614, 190.20666552380675, 254.15835389049118, 577.0254795020558, 211.83316161866225, 413.6884339089284, 0.9282041783230316, 0.8607680858471217, 0.8031811453013721, 0.9577249506906765, 0.8657899508101742, 0.9369167604250163, 0.9449299888701215, 513.3094022581506, 275047.75359967764, 36.59396286343971, 1074.2373270406383, 1021.3645779729377, 80.68868649587195, 1.7759965238470345E9, 0.0, 2026-04-12 20:22:03.847
0.0, 0.0, 7.852484084459757, 5.3437467779946495, -8.692245156843562, -24.958206501904826, -40.33882811410544, -55.87199928609405, -9.357916576738077, -77.21624400625521, -2.5767277802916766, -59.477890241504724, -13.34359312634217, 19.646586422106225, 162.27609816954282, 139.3879754449649, 179.71551824089627, 0.8030936470528346, 0.9157432728437632, 0.9113493162191223, 0.9893455433694259, 0.8921950456738081, 0.9480085592633051, 1.0083457805988045, 548.2637111217421, 247267.97781782885, 36.59102058615032, 1023.6206997070409, 1074.9263300211758, 94.77400736338032, 1.775996523850884E9, 0.0, 2026-04-12 20:22:03.882
0.0, 0.0, 14.82708460221615, 19.012298728551027, 22.255161973667903, 14.071823644967118, 7.154342934006053, 39.17128290985609, 17.14169615034276, -1.3559164759224842, -51.46518354686043, -17.607569737000958, -26.517054633284175, 3.951343625048665, 68.63134718387144, -181.55815727823057, -167.23813915410744, 0.989175921495988, 0.8630569027008848, 0.8269491491643198, 0.9218382972211777, 0.8164611130602022, 0.8859510578184918, 1.0399310051365012, 512.8550164734562, 241181.95383517706, 36.605712753886195, 1073.8494354062177, 1029.7673499045004, 87.6053641817314, 1.7759965238543856E9, 0.0, 2026-04-12 20:22:03.882
0.0, 0.0, 21.34849943779411, 34.04976412300668, 47.33968181442593, 63.726005902708984, 78.10445627144118, 97.67769758037495, 109.03588010862526, 152.29734165232202, 158.40753868704672, 172.26674570204062, 193.99043147818242, 466.81527457847875, 261.1836246745345, 240.73326905375666, 409.94386482846454, 0.9145773157823652, 0.8537701793186467, 0.9121055900521603, 0.8705991016397405, 0.9179218121411449, 0.9318039417905838, 0.9552259138388051, 541.7518349449241, 266496.5550133751, 36.60819831918182, 1054.8619710138641, 956.5575062137435, 87.94855676889533, 1.7759965238589416E9, 0.0, 2026-04-12 20:22:03.882
0.0, 0.0, 27.83005687159724, 51.529588093034874, 77.57245906362444, 100.26499196012959, 112.97976866512302, 169.81035164799158, 170.02415901455402, 200.29088592898884, 244.5955725932233, 181.12021179107023, 272.0070069871252, 469.24087978444277, 284.86139473942774, 285.1380224969897, 280.1482346367189, 0.9543916814049017, 0.8483971460950317, 0.9770172451240279, 0.8431199920597402, 0.9575432224022954, 0.9900139576678954, 1.018042842540664, 542.8974105793715, 273557.11671388906, 36.59216821465036, 998.8256964328898, 1042.9166299335595, 86.56000880253896, 1.7759965238629756E9, 0.0, 2026-04-12 20:22:03.882
0.0, 0.0, 33.64735658492184, 59.175338734142755, 100.69521162148169, 134.232204940982, 133.40619113152445, 148.09694032935252, 147.7234041495343, 163.30237850335928, 131.33778144123045, 97.91180860993408, 139.95001175679096, 78.77355883387281, -71.16430430037289, 4.362157669970401, 67.13401048755044, 0.9532211466055908, 0.8232745134536023, 0.9989133432016813, 0.9538565051685638, 0.8701215133327532, 0.9766225569754176, 0.9912166630000745, 529.8076758194501, 265193.9099905509, 36.590193051310145, 961.8442328374214, 1017.7590639403362, 93.31339034870561, 1.7759965238670447E9, 0.0, 2026-04-12 20:22:03.882
0.0, 0.0, 42.07312259640342, 69.1021344843363, 87.78929079622218, 104.28889797211647, 100.52997764427052, 87.26494212375417, 47.976963573011005, -9.762487924470847, -23.02101158399485, -23.28595867063919, -19.55417169486614, -44.594395045617006, 46.26347908635577, 169.9878059944422, 266.6441925707843, 0.8121429914632984, 0.8167507374400496, 0.9029844849199139, 0.8711986987239188, 0.8979111794648688, 0.9820265170185037, 1.071087926723088, 471.55594359929637, 263232.149281803, 36.595714005560055, 999.1477759353396, 1065.8116745830303, 86.12334480531, 1.7759965238713531E9, 0.0, 2026-04-12 20:22:03.882
0.0, 0.0, 44.99247481301527, 72.48946180986272, 81.53863220250241, 72.82104519200044, 46.387111719434, -4.320853575695068, -58.25141494258787, -40.96459894234991, -14.040408604704808, 84.5495861801009, 323.6369408339574, 352.51996565557613, 282.3554861853721, 319.3617912707598, 194.26824741607516, 0.9096310887812472, 0.90315286842938, 0.8154214258633491, 0.9008260841032186, 0.9492352487832799, 0.9334004927881453, 1.0536169647798772, 507.000699008725, 260532.85184728165, 36.59803184456326, 954.4551731146788, 1049.8354689384446, 90.22601637566915, 1.775996523874994E9, 0.0, 2026-04-12 20:22:03.882
0.0, 0.0, 47.87028274900937, 69.06332858231721, 65.30395108049841, 38.53631036409527, 14.009437039307699, -46.3995675071437, 15.199024132252575, 70.97069520154645, 184.74118901902273, 293.5240858186035, 237.22430764709424, 194.90263243382367, 132.92834556955097, -76.97587564667046, -77.91254204464104, 0.9108656691929932, 0.9767977145910832, 0.9744452417557162, 0.8945619822593281, 0.8910756817580014, 0.958819897873859, 1.0515201471685864, 452.2125511313829, 266048.0613249632, 36.59619953371304, 993.9242274815774, 911.9929045405286, 83.67893203290832, 1.775996523878234E9, 0.0, 2026-04-12 20:22:03.882
0.0, 0.0, 47.42617969611112, 57.51146293541241, 38.5139522834846, -1.7381425762903007, -22.106171945550287, -14.301235785525265, 89.13679662200242, 210.11015623838625, 265.8818798867933, 406.65352287574655, 88.33576464759469, 42.95337826012447, -153.69592259246508, 71.1173656770264, 231.50446692022564, 0.977222871131285, 0.9542597705388235, 0.8565815048946028, 0.8054123433587755, 0.9134037165730461, 0.900766320006802, 1.0084038173445355, 534.2934373116201, 248678.08052100273, 36.591649210152006, 942.540954796098, 1085.2763678165898, 89.80413482983118, 1.7759965238833964E9, 0.0, 2026-04-12 20:22:03.915
0.0, 0.0, 48.60127065035231, 45.18987660246568, 15.728621695611512, -25.61031737907807, 6.479386433934501, 90.05059437498738, 184.15113766695902, 254.82385021621064, 135.22965021871892, 53.6291148766727, -105.83287368113923, 30.39790518773819, 167.61416154205102, 233.11297217249978, 734.3575929044341, 0.9934352297922023, 0.9176904507608988, 0.8669797514023736, 0.8823683058926147, 0.9097181288800059, 0.8287381386631775, 1.00860804715665, 517.7614200120069, 266036.8613739964, 36.6055332708454, 1044.4336051317057, 970.8294849112942, 99.68751577824483, 1.7759965238873904E9, 0.0, 2026-04-12 20:22:03.915
0.0, 0.0, 43.160180627544186, 31.084019598686698, -15.01696091823618, -3.3584643391844935, 59.88972708342306, 168.6180837925093, 170.653843638737, 87.39162927000858, -48.48315626745071, -75.58407834847009, 125.22979498392063, 307.19361541622305, 250.7750247306422, 135.65478190998087, -84.73303763203108, 0.81704458551, 0.9168508108221723, 0.8698107476714251, 0.9924837739120848, 0.9825147673883249, 0.9716474224224473, 1.0958950283692657, 502.74955144631303, 263081.636968825, 36.59339851237704, 909.0695844168068, 1054.8261123685957, 96.39223041037786, 1.7759965238912272E9, 0.0, 2026-04-12 20:22:03.915
0.0, 0.0, 40.987904934874564, 15.166100863985685, -12.6189030356134, 16.68417434202557, 121.98110215923882, 171.4108928819977, 83.88830018997828, -9.333149328809029, -43.75539092905262, 167.913835647628, 374.16891457757737, 229.34722557129453, 86.25003856275514, -28.037296625194358, 326.1591489172686, 0.8234030232756255, 0.8518641581553847, 0.9651792192254013, 0.8265043302227186, 0.8906318996899915, 0.9995834462087038, 0.9062852356247931, 458.02927879000646, 231271.68386245525, 36.60229645465088, 1075.4611901790447, 1013.7350332777999, 86.92073106494774, 1.775996523895242E9, 0.0, 2026-04-12 20:22:03.915
0.0, 0.0, 34.542256440521186, 3.0652341834288848, -17.577391483972555, 61.84218837509192, 168.86717451947578, 91.35243250082198, -50.31577509383115, -22.20590782657041, 157.98869562909732, 214.8778519027789, 131.73263517447776, -99.0170440836423, 100.03916108877223, 620.8732566115273, 445.93542346477744, 0.8764849443818978, 0.818583208173606, 0.8731633342869803, 0.8741698003688213, 0.8712436676085372, 0.9448797293531702, 1.08975284892658, 457.27192875679754, 248499.8870742095, 36.59933613452504, 923.6040610060056, 907.8417930993478, 90.25752097460243, 1.7759965238992412E9, 0.0, 2026-04-12 20:22:03.915
0.0, 0.0, 28.939121089670813, -11.236733492633071, 3.380360281686606, 109.36400261301756, 130.59844382499625, 26.209331250129935, 15.37932958237137, 128.00185757692165, 281.140133161977, 110.3361117790627, -117.18093893697034, 111.29149803077797, 378.20179252112337, 529.6055693762938, 21.075295640311595, 0.9339301636189196, 0.8943924159656276, 0.8697661134926985, 0.8726739057782616, 0.84857837719479, 0.9831386432018397, 1.0418375662207355, 497.03530772576374, 243797.8596205468, 36.60118665967057, 962.7207329107703, 1088.8192411637006, 96.32170956049494, 1.7759965239030664E9, 0.0, 2026-04-12 20:22:03.915
0.0, 0.0, 22.29123891747888, -17.125443954525586, 34.64057403641301, 121.49858399428909, 72.63088511886987, -10.149183482377666, 67.93993171623558, 160.8491938631177, 235.1142826711478, -66.27314030540504, 98.89901948402374, 271.2566945329213, 197.73644957127476, -183.46623963065576, 94.11642021049984, 0.8171173398202333, 0.8702298796589719, 0.9917414778899923, 0.8880624291476541, 0.919425792079822, 0.9326164830051901, 0.9962260901977581, 489.0923890769224, 246662.26624412157, 36.60983625635066, 1045.329156217042, 1065.807686000045, 90.96197952962657, 1.775996523907239E9, 0.0, 2026-04-12 20:22:03.915
0.0, 0.0, 14.588824955313845, -13.223896264566328, 62.59118120693932, 123.3629795822918, 17.97307880272976, -5.776918974648169, 190.13902695866864, 158.35115095948925, -55.179168431994384, 66.32505848031805, 331.108088326045, 165.83188767798566, -19.649745095351307, 170.4722149668912, 309.0913280638275, 0.9649842717322065, 0.8195152704566856, 0.8146562054522017, 0.8396065436093064, 0.9384222196969286, 0.8619023886392214, 1.0512400849164605, 491.69547230007794, 257038.22322936248, 36.60637473026027, 1022.2291436731888, 1015.8850445918786, 83.61868945317053, 1.7759965239110503E9, 0.0, 2026-04-12 20:22:03.915
0.0, 0.0, 8.167288172102245, 0.046403591117968546, 88.14080244183484, 79.23620399163269, -37.32848860681469, 75.02409396372266, 220.72789497328046, 7.923712857534781, -46.84546872191564, 237.6956245501397, 190.77061533159446, -140.25524770318003, 292.07386388916893, 430.6918845970703, 49.819359050195885, 0.8243455130218913, 0.8760832284671531, 0.9860038954292473, 0.8199431859155858, 0.8642760078906909, 0.8026027174460894, 1.0538243006753991, 543.1963621204923, 249600.9632517596, 36.602254783161236, 1094.8060582568044, 1034.4137599802561, 96.24890425381079, 1.7759965239150913E9, 0.0, 2026-04-12 20:22:03.915
0.0, 0.0, 3.871449985924773, 6.059804932974728, 100.32132548797733, 35.448303458480716, -14.646616256572145, 130.31727677885718, 119.46580532519206, -89.67057661206303, 153.3114981102134, 238.63614374187625, -94.9078531554756, 126.79885907890178, 606.551494412726, 44.9764348445305, 95.45148396380836, 0.8847208553562337, 0.9037757605728026, 0.8613609334610951, 0.9564762289898986, 0.8261437661599232, 0.8874611143266716, 0.9092332623123047, 455.834152090414, 258512.41657802236, 36.59489852848523, 945.950793809793, 914.4135322561132, 97.98945925511907, 1.7759965239191053E9, 0.0, 2026-04-12 20:22:03.948
0.0, 0.0, -1.8020081576576565, 23.08056059533817, 100.12347331985457, 8.557583185038574, 32.52054031915033, 143.922284748344, -16.572851892560166, 84.72838335823235, 236.3967976542237, 39.262813373447656, 80.52052227624804, 351.6199669704085, 71.80054912552511, -42.82621638541559, 492.0803797146873, 0.8101024470934155, 0.896997652233486, 0.8293810772137904, 0.9706657013887735, 0.9628045754348681, 0.9928427979326059, 0.9698956433802333, 459.22311622404777, 277631.0589113504, 36.605589702776285, 1031.2437410532964, 1079.59114440446, 89.4058260171491, 1.7759965239231553E9, 0.0, 2026-04-12 20:22:03.948
0.0, 0.0, -8.753920118498002, 39.74992807650666, 71.84343432585273, -20.015865143938314, 97.88445565179472, 100.03875517528448, -44.98118375539907, 401.8949158754359, 130.49701052718657, -44.447843899837125, 186.634301856506, 108.39974155811971, 71.61554591372388, 289.42115071718035, 44.6957044292576, 0.9059261338434196, 0.8563841747357971, 0.9423641423619787, 0.9506448129529165, 0.9775684645271198, 0.8729852466821705, 0.9601438646534558, 538.7911376821238, 258581.3835885634, 36.60106866187533, 1088.3005454463207, 996.2543770827721, 91.37684954008446, 1.7759965239272604E9, 0.0, 2026-04-12 20:22:03.948
0.0, 0.0, -7.8080147714257, 53.794736601133934, 55.13296883707582, -7.791335923777581, 159.96223968277508, 43.004272335878824, 40.10895625172203, 453.1040325359973, -20.27316109084005, 145.57387648873603, 190.4474216398602, -86.62405899673178, 340.47571012195544, 129.96991599774674, -11.91899322401349, 0.9831890760316734, 0.8460546575876948, 0.8445023015065174, 0.8908230691629865, 0.8472905792690143, 0.9381860507750172, 1.0525254100322756, 522.0690543997472, 273926.11285170144, 36.60982545448454, 989.6043415068481, 1052.1531383624056, 90.43617126252151, 1.775996523930736E9, 0.0, 2026-04-12 20:22:03.948
0.0, 0.0, -6.120253403834564, 61.16464481496587, 22.8504163049632, 18.64248715475494, 141.5663480990163, -51.45884795238409, 129.80252930065626, 98.81060937295786, 25.515711467735912, 303.27516668228736, 35.7976829539533, 339.554040235603, 225.9207621593552, -20.25279594481188, 444.3415966811652, 0.902669070197719, 0.9287080023923308, 0.8747429676925267, 0.8243833706844815, 0.9965625922847438, 0.9727799629960997, 1.0105173700503547, 532.4839618985802, 228768.18053724337, 36.59170404630312, 979.5330957357415, 912.4604831952796, 97.21580566803635, 1.775996523934774E9, 0.0, 2026-04-12 20:22:03.948
0.0, 0.0, -6.099339337948187, 73.97658014828079, 1.026248440799094, 62.214860574548766, 84.45193619786768, -7.48697609926802, 201.13025533597258, -57.69700089848226, 173.36028653992707, 137.47325926400742, -50.128856993037715, 515.7556349521856, 74.71720562957243, 227.179816075438, 145.37985003502448, 0.9406458696906469, 0.9286954726381168, 0.9646258350758309, 0.9773698326071257, 0.8540758250687823, 0.8806392907056672, 1.021786879282967, 507.8980336027237, 265762.2795504185, 36.59367238302449, 962.7128252939674, 1068.522484769894, 97.65408328719055, 1.7759965239393337E9, 0.0, 2026-04-12 20:22:03.948
0.0, 0.0, -3.038011991957081, 72.35504257529695, -14.261897764076522, 111.86040895186629, 31.6631153864608, 62.0836696970507, 131.89639242968883, -11.109452116096236, 252.9658167149602, -101.56779168514953, 179.8433970388573, 130.69106593349167, 123.84646088826983, 303.64243900878864, 45.41844048713884, 0.8705515823959434, 0.93694468860415, 0.9419878139762495, 0.8886985836683494, 0.9737318449671027, 0.936925573972292, 0.9201835663457961, 523.0386434728641, 237491.34889419534, 36.606092327632346, 1064.0103606878115, 935.7021424354724, 97.04321936733842, 1.7759965239433773E9, 0.0, 2026-04-12 20:22:03.948
0.0, 0.0, 2.264966463422585, 65.26516660379093, -18.778932862844982, 130.10443281076564, -18.126469459300083, 139.12303650124022, 34.23276481526575, 109.47734094666242, 113.19350759289321, 5.957778226043672, 603.678656593826, -85.8229274994732, 201.66616468661832, -137.84272581634582, 652.5766046939888, 0.9702585383349379, 0.9218895898359069, 0.9771538411824688, 0.8544624931630048, 0.9855987608237321, 0.9585755317699339, 0.9739639290451024, 467.82063908525026, 245890.08777691322, 36.60864455357373, 1093.963783308454, 921.2520858375279, 86.46092705340837, 1.7759965239473448E9, 0.0, 2026-04-12 20:22:03.948
0.0, 0.0, 7.262321706028912, 55.88105591263556, -6.565168318313319, 117.33441647687657, -17.624709965015555, 169.36366904423176, -69.34217454281386, 183.8442641450552, 10.441020540957439, 254.98417778677594, 91.06802386142513, 184.36266801487608, 121.43422006104532, 164.1878390989515, 432.39784728218524, 0.8533807174618465, 0.9174152029982786, 0.8530589781701634, 0.8311203424667768, 0.9435408062925154, 0.9007314409523016, 0.9423372084907906, 469.55509009151575, 258040.71158194088, 36.5934498445601, 1061.524162858863, 1074.3063351671055, 88.39518157642098, 1.775996523950879E9, 0.0, 2026-04-12 20:22:03.981
0.0, 0.0, 13.872586356787046, 40.49375074044275, 18.419131247789096, 76.28359446658216, 22.444876117279954, 137.0855154780918, 22.50158240610827, 139.01409790907482, 46.37629981672736, 229.0488722064623, 10.864363474748842, 252.02234912024608, -10.77041737092452, 436.65072123011873, -100.99881321588157, 0.8047423842180168, 0.9730835177212894, 0.8423311315088818, 0.9466186917531562, 0.9860464190703385, 0.9069452398818584, 0.9006284798617531, 528.4330033729566, 229030.2295349927, 36.59585520776169, 1063.749377657774, 914.5436418458271, 95.3498254459564, 1.7759965239548638E9, 0.0, 2026-04-12 20:22:03.981
0.0, 0.0, 21.35981318198859, 25.228912755116895, 48.46097178484392, 34.03381856538297, 78.20315239464193, 33.8462775565415, 243.19994686767933, 39.5292887104128, 181.48354058697691, 37.74101682279387, 162.9739361145824, 9.026613149139422, 325.2675102883961, 22.906399312594303, 286.34209081567803, 0.9513840114853661, 0.9720598416712686, 0.8755389085932251, 0.8300544738055476, 0.8685628780016352, 0.977554693175818, 1.0482809564257936, 476.2870519964033, 277933.8786284862, 36.59337116746418, 1019.205661976597, 1019.4370341323502, 85.34124562297033, 1.7759965239584668E9, 0.0, 2026-04-12 20:22:03.981
0.0, 0.0, 29.051715537633132, 8.562543307211175, 80.7954047776023, 6.054339895004567, 145.0411468222578, -4.2670947623053905, 341.4371304412171, -41.035389413615036, 234.8395068905631, -68.9838301135755, 265.86562881298914, 45.18026386097425, 259.0966479553888, 75.2698926296442, 307.9143667048624, 0.8571577342363202, 0.8014684069692708, 0.9172272567699914, 0.8870368028280645, 0.9326337691428, 0.8187915307881208, 0.9257320913050432, 477.9871218068473, 249281.73645324403, 36.59830223520827, 1052.1232358922373, 1078.824256020232, 95.63554653575696, 1.7759965239631064E9, 0.0, 2026-04-12 20:22:03.981
0.0, 0.0, 36.2979938788178, 2.616494717089612, 97.01588848995783, -27.114661193675715, 118.6368480022486, -18.958036836074683, 130.56507418329494, 46.04645420808998, 122.48728587904526, 121.04023278393717, 25.30370501897484, 225.27448564941693, 85.39488161557428, 704.6771518898108, 38.44734815998612, 0.9276885036594608, 0.8813709050401883, 0.8238498015949397, 0.8347189654292528, 0.9263849932868907, 0.9987547966694442, 1.0594482263340452, 504.792693923002, 274602.14591794874, 36.601426607326594, 1013.2491849641485, 980.5045632465326, 81.59825732980306, 1.7759965239670424E9, 0.0, 2026-04-12 20:22:03.981
0.0, 0.0, 40.74298189927181, -4.015658883049198, 97.35313613850093, -10.928428620667724, 118.07201583864477, 54.78666587518262, 56.29909378970573, 179.12209539445195, -12.6786299753836, 478.22483363910777, -123.0910458158533, 261.82058977055976, 78.55947262950264, 240.20888748904403, 299.05116583667484, 0.8687657727008024, 0.8943812894558023, 0.8190492989266552, 0.9194891038488496, 0.938189858612449, 0.8266303430232705, 0.9914610722322865, 472.961122875753, 276326.52942067775, 36.60642393997744, 909.0601187996809, 990.3302525920225, 91.63019077880193, 1.7759965239710236E9, 0.0, 2026-04-12 20:22:03.981
0.0, 0.0, 46.44644788574155, -18.423824964314456, 87.03064633095391, 25.3951483347781, 47.95165710100934, 112.24742664271119, -3.580356423640012, 230.28677312295957, 47.23001820094772, 273.9293289603343, 187.9146394449113, 13.639370262454193, 384.1385441822363, -191.64305234558435, 300.8796802954688, 0.8299681384927974, 0.9792469245739027, 0.9814528243562471, 0.9011543878553364, 0.8458086731745994, 0.9317597983407465, 1.017043231271519, 493.8761290530118, 228778.03418921234, 36.59044914535523, 1038.7788532207207, 1048.8803119330316, 87.4223029934484, 1.775996523974854E9, 0.0, 2026-04-12 20:22:03.981
0.0, 0.0, 44.78166924014532, -14.4599582785034, 63.45923008082977, 61.062950405145294, 1.894960240754294, 181.00629078082966, 10.596270565865169, 126.38287859792021, 186.3477962893348, -85.72776625659475, 217.83956327883118, -37.90348142909795, 267.85294216282216, 245.34418741913515, -125.61517476777323, 0.9545209551196282, 0.9808236856935119, 0.8641969035591969, 0.8568145257503498, 0.8922951129433572, 0.9170754331436864, 0.9022706584694004, 471.0839209852153, 269128.28645619715, 36.60176147196617, 973.7688169508793, 1047.8684061046183, 91.71193143551858, 1.7759965239788897E9, 0.0, 2026-04-12 20:22:03.981
0.0, 0.0, 49.06338007928732, 4.099044433340623, 38.62568732886868, 104.2923526754631, -46.75653613224796, 140.83022809191857, 93.00642821785225, 32.14608773795946, 273.32880839832455, 56.501561959870685, 108.00454845863337, 240.96980222160045, -28.174681906672618, 209.68256410372356, 245.53441457161145, 0.9146170081588726, 0.8852288038360605, 0.8478508986320369, 0.9064454163653833, 0.9920965810313948, 0.9014140912845147, 0.9709619897077322, 516.949940005956, 230365.8151589231, 36.60554461891406, 916.934283016534, 938.3217238131633, 88.5896521894693, 1.775996523982906E9, 0.0, 2026-04-12 20:22:04.017
0.0, 0.0, 47.346741558096866, 12.526378448163346, 14.421509066976945, 108.86180532791431, 6.787445821364187, 110.85167118906699, 144.98625362343307, -6.27900052564064, 114.234632262891, 205.95140836978533, -14.21013416057582, 189.4606094258649, 494.83166381980413, -116.9105450942688, 338.53840204731057, 0.9699737413256276, 0.985724643149457, 0.8291853260031582, 0.9857520912234888, 0.8851905908717058, 0.943505538526992, 1.0651863809526148, 455.0504393411079, 250894.3572742357, 36.60832850638842, 1090.66287515205, 1080.320539073199, 87.57031380978873, 1.7759965239864252E9, 0.0, 2026-04-12 20:22:04.017
0.0, 0.0, 42.871263250393795, 28.94907737180512, -6.7683090518734375, 121.64459553455436, 59.87667232585709, -55.14153143099085, 210.89743245930953, 93.8116204545683, -58.955185628017574, 311.9557541144485, 131.31782305088808, -17.006121575965665, 362.9936231642423, 174.78681228971783, -161.98171763048975, 0.8757690787074471, 0.8269206893069996, 0.978430111111584, 0.9767639019458977, 0.9904770416780576, 0.8808338270242329, 1.0602090268803788, 484.29262519495313, 235764.86790985422, 36.59396889244897, 1088.4036886866197, 966.2219811095558, 83.00985191108116, 1.7759965239913845E9, 0.0, 2026-04-12 20:22:04.017
0.0, 0.0, 42.65808481836088, 44.876810441976254, -23.054779038816804, 81.54489456194386, 101.34359295874958, -33.36490208695548, 82.07554737211954, 214.01544939550746, -21.928702102476038, 73.27393006246187, 383.694552155494, 67.0078250516004, 25.349505108124376, 353.5368085508087, 158.73329572939844, 0.9438532392783584, 0.823115914565728, 0.9084086729871063, 0.8997389756742309, 0.96601791974129, 0.9831944507013627, 1.003529651219578, 466.97115595471826, 244515.530865459, 36.60003715571967, 941.5823562164178, 961.3459654808426, 89.5768804536509, 1.7759965239953816E9, 0.0, 2026-04-12 20:22:04.017
0.0, 0.0, 35.70301330814068, 57.06243055740982, -8.0152183424712, 38.8721792146489, 126.83453787093536, 37.178030744225325, 2.9507566507515577, 201.48882299511723, 151.11689735990007, -85.01999980314596, 139.77979195429984, 358.6345179021747, 70.7773820075314, -69.45860700136123, 474.3768408266187, 0.999635911690924, 0.8313962505505685, 0.9626839905314212, 0.9381470479947832, 0.8440874237135507, 0.9058695497094108, 1.0391556869037049, 526.217714695399, 243810.9350917389, 36.6040752050786, 1051.1688298967717, 981.1082482535843, 88.59746100241982, 1.7759965239989522E9, 0.0, 2026-04-12 20:22:04.017
0.0, 0.0, 28.776199678550185, 64.88920217906673, 9.40186596888752, 4.163707028854574, 120.1372984102935, 120.44337106847203, -40.33288207247189, 59.74344869420514, 237.30340194264087, 109.55874066465168, 1.6387587852195367, 201.19846889456875, 233.0477726420597, 93.83898790878905, -119.17419418774881, 0.8007690709863899, 0.9415195748981638, 0.9640689871575147, 0.8841710196714871, 0.8354214388646334, 0.8076236930400225, 1.0388086034572908, 477.88234431670907, 270564.6028829289, 36.5954236070598, 1033.7964252700103, 960.704281965517, 96.12994638318744, 1.7759965240029085E9, 0.0, 2026-04-12 20:22:04.017
0.0, 0.0, 21.942268164431677, 70.43718047495102, 34.60582206965389, -37.43652128641804, 72.11450196129117, 143.56372124495726, 66.25931215390408, 12.779635625234164, 271.2706425852236, 250.82102115488178, 89.34436938593984, 64.85390991957084, 202.13252656507754, 437.2267093448959, 216.61718740387036, 0.9155244476364567, 0.8767410299778367, 0.869030360254722, 0.8640324562188456, 0.9272809461285946, 0.9500572573876575, 1.0577383630857513, 507.7942617680573, 276760.08849222, 36.59395043727829, 1099.7544025644352, 909.4830813845357, 91.72236917729596, 1.7759965240069432E9, 0.0, 2026-04-12 20:22:04.017
0.0, 0.0, 15.457317409767159, 71.9897289156298, 58.22428308562169, -10.075337847872092, 10.575077131433872, 134.72507204428362, 179.9219922159212, 39.53628745320076, -103.548584859014, 192.36890459082508, 242.13885634995722, 209.25484456515156, -7.931389230613519, 128.3760765343124, 790.8163656897475, 0.8423778717958158, 0.8372393632643855, 0.929848858409518, 0.9139882321608127, 0.9186293308082197, 0.8082084861177762, 0.9463526050808998, 476.7366122812794, 264945.9308021922, 36.60252837861432, 1042.0624314542076, 934.2917187173639, 88.3157811922189, 1.7759965240104725E9, 0.0, 2026-04-12 20:22:04.017
0.0, 0.0, 7.626111384534417, 63.220520719998525, 90.36157549495732, 18.960150673517845, -10.457593809885964, 63.950845270513426, 191.26843789228673, 146.9652603631081, 39.448410249439604, 49.34905527993677, 169.12471415879372, 496.8603097723602, 156.112352823704, -46.93627218866686, 125.74399820783717, 0.8865282111414394, 0.8486224895180328, 0.8363307784415329, 0.8148989629766684, 0.8904401285240686, 0.9659561030914493, 1.0756406683177153, 544.659358644654, 252838.0570725475, 36.60345978359036, 926.1692481745501, 1070.976839023407, 86.00352831182772, 1.775996524015472E9, 0.0, 2026-04-12 20:22:04.017
0.0, 0.0, 2.74911459795398, 50.8445786382562, 104.2571736721694, 66.1844011164334, 3.0099513607708275, 16.285643611484808, 119.9409284584149, 178.51968350768206, 135.11245622616065, 31.140256885228652, -119.02347300577443, 280.74849600837825, 341.79264520495866, 208.71664039473103, 70.54634411118198, 0.9179737572249372, 0.9569118468897525, 0.9765925616508894, 0.8565458633083941, 0.9365567047538189, 0.8125957733747274, 0.9286431207887105, 481.6160461059779, 237755.8757020575, 36.591099513321076, 966.9258186220255, 1081.1019974430715, 82.76285763218867, 1.7759965240194595E9, 0.0, 2026-04-12 20:22:04.050
0.0, 0.0, -2.8526109403609468, 37.08639884574461, 83.82269377531198, 114.29351649137492, 37.51506430527364, -42.13672443847106, 20.477892212885394, 127.21678638793105, 264.347925745311, 176.76716637009883, 85.49724237193904, -35.591204400100025, 10.796891862712442, 225.5164396395471, 283.8002352110133, 0.8852293708564285, 0.8820152419657373, 0.9422623387037447, 0.8571154799192341, 0.8440211306667502, 0.829017079671785, 1.0354443604618087, 521.2753757575805, 238409.65805139113, 36.592784692594634, 921.6748069519431, 951.7890388610508, 96.05172441492053, 1.7759965240229743E9, 0.0, 2026-04-12 20:22:04.050
0.0, 0.0, -5.888500491765278, 21.3042811971669, 74.46972930962835, 118.39001727402953, 96.18129306396196, 19.96944232137097, 5.667896194575775, 36.918542723342156, 115.02964672305146, 233.7297605450962, 561.5355007747523, 155.86713643711147, 16.42761109906266, -125.62569631355257, 53.63278238388311, 0.8170562736593795, 0.8748995996985306, 0.8090716546390841, 0.979326675900492, 0.9828730870536334, 0.8826334459049892, 0.9672391753491735, 450.65001481198135, 250043.8732321951, 36.59001349888941, 988.8254661023047, 1023.2905512597173, 89.68197923290961, 1.7759965240269675E9, 0.0, 2026-04-12 20:22:04.050
0.0, 0.0, -10.239278753241194, 6.948531906099486, 52.39190652923561, 126.52791561157595, 131.7454706471296, 96.75070438288824, 34.82759194738192, -4.357546690863501, -86.47934058951878, 70.32857905715554, 394.26404056872923, 278.41433722110116, 253.1392072798604, 351.35398147536307, 2.695834949705187, 0.9111185040669009, 0.8885634185875143, 0.8111268783847859, 0.8429711183475409, 0.8144152646009267, 0.9814506858615201, 1.0948308021464421, 518.5099283279715, 242958.51716386896, 36.60028816132038, 1038.1858833045865, 933.5302780461558, 84.09559833392379, 1.775996524031667E9, 0.0, 2026-04-12 20:22:04.050
0.0, 0.0, -6.297006572084484, -2.2318081425007676, 24.666996257277717, 78.38976238484977, 145.90835645332885, 146.05973056989336, 169.13522490192312, 161.91338153926316, -51.08030274392371, -84.46029953026982, -96.86993197833425, 96.84940347438962, 267.15725486864625, 638.6959012530644, 449.00224162186214, 0.9432001128749806, 0.8692893379696961, 0.9569571822751858, 0.8816661920328446, 0.9809965557390646, 0.9295930772990803, 1.0547092192410374, 507.7066055268159, 277117.4017261662, 36.604169625092425, 932.6611906061162, 912.332400422099, 90.6675647225221, 1.7759965240350208E9, 0.0, 2026-04-12 20:22:04.050
0.0, 0.0, -8.59436190608314, -11.840149169233719, -4.0015289782191985, 36.90520996725685, 83.98272331651957, 167.4951434863313, 210.16388382775907, 394.0323504736299, 169.99815062765248, 99.22327465192562, 33.26364726197852, 16.313620175217963, -27.404163439425616, 11.930300391575855, 119.71898608250928, 0.9080740449835397, 0.989933595940046, 0.9947489774998824, 0.8460402994999505, 0.9614136366766436, 0.8799137077759964, 1.0929367575659736, 532.9346465512485, 229544.73900662112, 36.60927864483973, 976.053089887502, 912.302956495767, 94.7997769008168, 1.7759965240390148E9, 0.0, 2026-04-12 20:22:04.050
0.0, 0.0, -0.9715969189652931, -12.459657391311161, -21.20668049448785, -4.293711019673076, 34.98915894088046, 77.71816877712604, 135.87475488885465, 198.84946951590692, 201.0126234118688, 287.7316796726253, 168.89651446665164, 228.49583254177486, 131.12382712533199, 23.013533725015563, -182.32213337094026, 0.8336482702853314, 0.9174806028344414, 0.9885581972309657, 0.8643006650550942, 0.8882348754427, 0.8222818418733386, 0.9045310501124466, 457.36697086199786, 249791.98418320253, 36.59625249776028, 935.4328820333338, 1084.545220641875, 82.90219611326977, 1.7759965240422604E9, 0.0, 2026-04-12 20:22:04.050
0.0, 0.0, 0.2923480532397953, -5.443684586792649, -23.799315924009996, -16.219270713619522, -24.842256017919155, 0.7321977853159041, 34.90024324380284, 74.80299541997636, 123.80493450366276, 146.325948236604, 310.6231524396994, 350.0034998237867, 771.2225063984506, 202.41553752378564, 382.09776119383855, 0.9848623665830006, 0.9740850677287575, 0.9792202489948602, 0.8942560040845379, 0.8732391619892289, 0.8071224131915152, 0.9012914925001446, 475.6176769819525, 252665.50599129795, 36.60051188629843, 1070.67833898207, 977.3326913698544, 86.09963305639494, 1.775996524047348E9, 0.0, 2026-04-12 20:22:04.050
0.0, 0.0, 6.67884911488553, 1.6671728301523139, 4.886014563954795, -23.646395165549876, -39.933942103813806, -42.17053389004299, -69.22662307749908, -23.41709815257019, -30.80866239286101, 44.16686830071785, -23.917236110881674, 19.966539948779598, 194.3053649880288, 135.9237167368394, 190.53125498237785, 0.8266988671775952, 0.8043637808856434, 0.8813801548543428, 0.9296425868940738, 0.8924730457592581, 0.9686995949784282, 1.004718548280367, 458.43188200617647, 269981.1326531356, 36.59243825865372, 1098.8315323769377, 982.0587191057284, 86.8594571360695, 1.775996524051094E9, 0.0, 2026-04-12 20:22:04.084
0.0, 0.0, 14.874360878516942, 17.747946844313805, 20.11862958691566, 15.102775572891339, 14.116149848630506, 26.2451827662884, 22.628743184074388, -26.378295164963205, 44.83437692641605, -56.34725099805567, 47.72120764029053, -45.06979096093994, -24.399681621480227, -18.34589446022943, 85.96929985706537, 0.866990100317286, 0.8993565268717129, 0.8217487471366594, 0.9050254686042115, 0.8365449351856008, 0.8691238031257447, 1.0510102741166345, 491.16355112348447, 236768.90056864338, 36.59691280624311, 989.9865401030686, 1004.2409688793234, 86.32753661403476, 1.7759965240550892E9, 0.0, 2026-04-12 20:22:04.084
0.0, 0.0, 21.341059874113498, 34.5332507638433, 47.82853799623891, 67.40685607958108, 84.45264269727369, 92.56756518890532, 110.57290970514151, 121.64106279636003, 165.81260072406832, 325.5619391297274, 165.10830909015186, 279.28075485335467, 195.23971130329846, 308.05430875099387, 409.17136172422386, 0.9223441893453433, 0.8116875867926182, 0.9016752653654462, 0.8582315924375221, 0.9640164855579273, 0.868702934622287, 0.9802594550294248, 458.40975675659314, 262812.59268558945, 36.593221666353415, 940.230457840082, 923.1877981607756, 85.48053823103189, 1.7759965240586004E9, 0.0, 2026-04-12 20:22:04.084
0.0, 0.0, 28.60665629732346, 48.03286527997294, 80.718368741453, 107.7800288557701, 137.72394660803974, 154.56635960659457, 183.05819613055866, 261.0752889061632, 255.7259339017615, 429.7781375431862, 358.4494332700855, 233.8790479352575, 359.18951601953074, 237.00942876840202, 291.5344743737282, 0.9684701911016477, 0.82368040011416, 0.8527431709878507, 0.916728914737235, 0.879743255315967, 0.8621290099500911, 0.9063414695719874, 481.94050543730594, 259714.62169623122, 36.60949859304335, 1073.850527190035, 1008.6701019763437, 91.60541219718253, 1.7759965240636253E9, 0.0, 2026-04-12 20:22:04.084
0.0, 0.0, 35.79063954702183, 58.476267969950555, 101.43694746709116, 120.47064773414994, 138.79664981511328, 135.59568459672272, 175.17660166244013, 127.30030203299637, 127.16794295664165, 164.43986015103638, 64.89585224497822, -60.80659696852106, -119.74067302454762, 20.881983526652306, -81.43442904475904, 0.8186527842643204, 0.8775369757905769, 0.9639709589036164, 0.8529410023252453, 0.9697389932047563, 0.9496238302288315, 1.0956473230464296, 482.8898157084418, 274003.25857200683, 36.59954181382609, 973.001052642987, 1015.6376012589299, 97.31394782346693, 1.7759965240676143E9, 0.0, 2026-04-12 20:22:04.084
0.0, 0.0, 39.115752111853894, 65.435951602405, 101.24034922741811, 123.70730464687874, 97.04522741790205, 87.92270111855879, 50.23509737232918, 42.31516738934174, -44.75677210608964, -15.361303906812594, -26.191492492718595, -33.56114577706359, 68.00542950880185, 160.33008903598127, 457.4963894887518, 0.9516338364556453, 0.8859863872051954, 0.8672668233505736, 0.8700417857536785, 0.9039353372761739, 0.8556700798520022, 1.027204094761984, 460.00744795165303, 256533.54416672862, 36.59207460616199, 1020.7910242301173, 975.6056639082141, 84.66736753580325, 1.7759965240714233E9, 0.0, 2026-04-12 20:22:04.084
0.0, 0.0, 46.636007668831255, 67.61704020122568, 87.84499471693144, 74.16581176096771, 49.746398280243795, 0.5108335021832175, -45.348451784308, 13.54389889746733, 32.02075334366984, 82.05033060963316, 164.40212848898574, 268.56284346543345, 415.13128355583586, 407.178154129114, 653.8050903822646, 0.8150773308585955, 0.8623118688532431, 0.8964593442331712, 0.9677577638730354, 0.9941628004092588, 0.9582243614009026, 0.9307467326825719, 492.8895549841848, 240364.23673224085, 36.6096558791536, 1088.2811149552954, 1083.5630697021707, 83.14072998123078, 1.7759965240755603E9, 0.0, 2026-04-12 20:22:04.084
0.0, 0.0, 47.454600791391044, 74.1711773566356, 69.99650829298977, 38.060364769375084, -20.355099858784342, -49.32579465592559, 1.6645902231408911, 53.70062359124381, 191.18798118240485, 318.04053493326103, 242.63363328588412, 233.35727283206245, 135.99776553873724, 96.64345111203036, 14.521184572476358, 0.9470827072043061, 0.8624279369951336, 0.9279243122712083, 0.9622580053990518, 0.9033325019217106, 0.9413671428916356, 1.0683399174688248, 501.5543271271511, 254694.96451447814, 36.6055825996874, 1081.4507731441993, 1038.8026781939102, 96.92394206388451, 1.775996524079558E9, 0.0, 2026-04-12 20:22:04.084
0.0, 0.0, 50.21874007960102, 60.88915543516592, 38.89376966867531, 8.05586593820118, -42.907225501042404, -6.244199140475885, 194.03187597052104, 197.8630374472375, 273.721711657778, 223.96967914446645, 106.41307330422484, -82.449968786293, -157.3466389635973, 91.25433087655101, 179.86828875255495, 0.9125344904063256, 0.9462535474052903, 0.8689009759733873, 0.8966362839775625, 0.8034682259734856, 0.8832175522139399, 1.0464236989969036, 535.2010254769257, 259108.5269683687, 36.603350202633635, 1062.720936413915, 923.6795869168183, 86.32808814170019, 1.7759965240835607E9, 0.0, 2026-04-12 20:22:04.084
0.0, 0.0, 45.818234913977975, 46.66310084588365, 6.7059985298150195, -22.54519426076753, 3.4371909024384735, 82.26330949024346, 350.3073672365742, 215.8434681165429, 124.71910216052608, -44.82701436077252, -79.7757072324305, 44.52205282775259, 251.54507346409068, 205.2171655773741, 378.1362927872392, 0.8293443549281226, 0.8341796101819635, 0.8326463114014486, 0.9754964220930274, 0.8318028131118388, 0.9125041869477474, 0.999549178506012, 466.4747645379319, 262812.5855738045, 36.60381063970849, 909.2729987403768, 909.9430435261811, 83.1040723869968, 1.7759965240871916E9, 0.0, 2026-04-12 20:22:04.116
0.0, 0.0, 43.50493351307519, 31.047808191573793, -9.533454175094278, -14.588312613560916, 59.87311538872047, 179.3717114937392, 167.47447634224795, 86.3224468378242, -85.80073361467379, -51.89621671179944, 132.73657689900014, 576.0957215226515, 370.8168587295762, 278.9742508826215, 79.44500227044068, 0.8408378296127405, 0.8753949510991191, 0.9951876591532122, 0.9880945300759897, 0.8742716025898271, 0.9196868699343496, 1.0817356626422303, 510.07365715324994, 255851.07453999325, 36.5985550243618, 1006.3430480676888, 902.4977855749488, 84.42349477419992, 1.7759965240912197E9, 0.0, 2026-04-12 20:22:04.116
0.0, 0.0, 42.158893232855384, 15.62848161915065, -9.000192088637583, 13.420766388097533, 121.58430860617213, 164.72783799896962, 82.15686918605957, -1.8208689720309934, 24.373519085918744, 158.51646173998026, 338.9556119921928, 382.6639778526601, -52.28868709850718, -113.07099154372833, 158.60368446385195, 0.9582034564815903, 0.8773731267163335, 0.9816690739373196, 0.8994681596248721, 0.8956820385076749, 0.9733170062441806, 1.0666244552016924, 512.6295481004198, 270888.43792861997, 36.600226508706406, 980.7905122690943, 1065.609851068166, 81.3044868337499, 1.7759965240952592E9, 0.0, 2026-04-12 20:22:04.116
0.0, 0.0, 35.092979349410946, 5.92365033953913, -8.174448963761286, 63.65089709385819, 138.16014225540135, 98.41960533514113, -11.450946358096488, 27.428376463968164, 132.87286728362284, 345.1671603336674, 133.38574189041475, -42.01011506390981, 98.1940094273765, 676.4687873340984, 357.6678957050508, 0.9603372764848997, 0.8374532825529877, 0.9701903059788984, 0.9499362891732378, 0.9674307027403283, 0.9337587911737874, 1.0628442074766116, 501.5382640901445, 228969.0041087193, 36.59488580530643, 1079.1483726958131, 1078.6352500757505, 94.95682797319463, 1.7759965240992572E9, 0.0, 2026-04-12 20:22:04.116
0.0, 0.0, 28.69252672985218, -5.092465962682304, 11.275554657026461, 92.96214501658694, 132.01352117582792, 33.551278527290776, 3.47026272425839, 139.60903005309876, 229.6633584552762, 110.63365120464326, -92.1157937116526, 71.35554986256, 214.19315890950102, 277.23130951679695, 20.710824844121163, 0.9418605788777136, 0.9813958955074006, 0.8451213441230137, 0.8043353990791128, 0.8593582935914081, 0.859460946562098, 1.0692210413662844, 523.1923556100872, 237071.55195439837, 36.59229736071798, 920.7161631731177, 924.0880820874795, 95.17144872257714, 1.7759965241033103E9, 0.0, 2026-04-12 20:22:04.116
0.0, 0.0, 22.336891759480785, -6.650536606069487, 33.94461707318934, 109.3391229144326, 69.4672498815897, -52.53091442685265, 65.38613049983667, 215.46847769819, 244.26588209839394, 21.385632100905482, 173.34586722758564, 193.39580145497553, 164.62300371974501, -196.07481340285716, 70.66617718179901, 0.8880553647083353, 0.9149169163480501, 0.9526188925535409, 0.9677867016602196, 0.9349259707775454, 0.9190164168654934, 1.030132543628103, 511.0946776361264, 237717.42268178167, 36.596547040608776, 928.2624179993788, 958.5933751443661, 94.31900514206474, 1.7759965241072955E9, 0.0, 2026-04-12 20:22:04.116
0.0, 0.0, 15.225847041641543, -5.3413574632068475, 61.85705155865453, 103.81759102743764, -0.9267305797995888, -28.64345719441924, 169.707261323584, 169.25398503727746, -83.89970776944656, 68.465832125497, 565.1277614692206, 158.11185054657395, 76.8021646453596, 172.8593131043608, 409.05761106676243, 0.8344067058073892, 0.8781792056126573, 0.8706790215089838, 0.9540710703849257, 0.910811473465634, 0.939655641007148, 1.0012866723922924, 459.25293585338807, 230476.7064874298, 36.598179790350166, 1068.091186419743, 1064.3778995099915, 86.52040554871753, 1.7759965241113288E9, 0.0, 2026-04-12 20:22:04.116
0.0, 0.0, 8.84590485807272, -6.125485123246776, 76.54352500871522, 85.8860856554003, -40.55926938191426, 73.13192154911212, 197.3456086048604, 39.97896263570853, -10.291382542874715, 261.90076935064764, 348.741827478477, -20.62478728958294, 356.10971658131183, 273.24395367234996, -46.64619044719268, 0.815150791332998, 0.9920005531184827, 0.906001017957408, 0.8531326580937656, 0.8857913287389774, 0.8544425127232369, 1.0566965969443471, 470.8449379993109, 236906.26799338832, 36.59807448783135, 1021.3637469996283, 1024.2659577155232, 87.75715795117668, 1.7759965241146176E9, 0.0, 2026-04-12 20:22:04.116
0.0, 0.0, 3.3554774500546785, 9.757881665729162, 86.09040561990706, 37.997456517647734, 0.7678829700688325, 152.49611019659392, 117.00180077502401, 2.890914630779392, 169.36324430745304, 190.38538657326342, -37.23515576283532, 122.5341269716409, 578.3784327280374, 69.96072586081378, 85.29358099217315, 0.9828197117385532, 0.9805741004278187, 0.8864078948676034, 0.9556002711006119, 0.9610275382504355, 0.8281212746536436, 1.04631002169941, 544.5397245149687, 277582.62067574664, 36.59560537653249, 934.8437033721568, 958.0400598492988, 81.87529817624085, 1.7759965241197705E9, 0.0, 2026-04-12 20:22:04.148
0.0, 0.0, -3.524977181858578, 22.674899266881532, 97.73767804387336, -10.765419937648879, 42.50297286402271, 182.9634012870402, 15.21992039657998, 31.19032022489865, 274.08643383667766, 12.15028861651109, 77.97789390451902, 378.86502096847056, 128.68365461021244, 103.23860819653729, 546.3351027325587, 0.8850308872727369, 0.9182326829263402, 0.9851873260581864, 0.8675018806553372, 0.9699069953418032, 0.9694151302191824, 0.9140384412405125, 544.815866409164, 276889.1419435508, 36.60643267205876, 956.3004848009448, 928.5790451969663, 89.45151581118346, 1.7759965241227643E9, 0.0, 2026-04-12 20:22:04.148
0.0, 0.0, -4.456509797274133, 38.823167697130984, 82.04342741203985, -23.786871986590157, 110.44507281188451, 228.81115445929595, 2.480309801275638, 151.82701909741922, 116.3026668656462, 26.203814943036264, 214.96579118125356, 117.851777630606, 62.3139700136673, 378.1369146499038, 211.94800054926998, 0.9534146367178348, 0.8222297733936202, 0.9911377283732313, 0.904314770099034, 0.8082828678778208, 0.8470049841872037, 0.9106656818319118, 495.2424152834213, 271422.26631635404, 36.59042226171514, 1036.5710091268288, 1009.6624818428357, 92.32317277236405, 1.77599652412677E9, 0.0, 2026-04-12 20:22:04.148
0.0, 0.0, -9.691118810389145, 53.84253523744967, 53.74302565182926, -6.9322330730051505, 155.1865412838673, 60.38738540960175, 29.216334922926478, 200.89781105524673, 13.870888315432325, 135.6894491323995, 212.71559948437604, -72.74259376454808, 307.52684749651087, 143.30428944788133, 71.01279699669635, 0.9678337815449619, 0.8356685595957755, 0.8670578486041081, 0.956150600171043, 0.8509521701533338, 0.9940833927132168, 1.0809897816797092, 547.760413864403, 256350.99616509455, 36.60336096317501, 1037.6710718478719, 1077.1850779856998, 88.62085860081586, 1.7759965241303797E9, 0.0, 2026-04-12 20:22:04.148
0.0, 0.0, -6.4007560765488805, 64.48763649494185, 25.62163789701633, 26.640953116091804, 151.93055287517532, -23.000464823245068, 134.09235574400668, 108.89210707731992, -16.950111457780594, 234.7530345467919, -11.491887741724724, 185.83842581564127, 228.0508438146469, -96.97388130641767, 660.2333903259789, 0.9356796542840736, 0.9557316511447714, 0.8341254363830615, 0.9612815141230125, 0.8954019998803079, 0.8310514360497923, 0.9067522425657718, 463.1309863576723, 259180.93683100218, 36.59282811576824, 1029.1254284009685, 912.4920745350653, 89.11866292780145, 1.775996524135054E9, 0.0, 2026-04-12 20:22:04.148
0.0, 0.0, -8.79593687928779, 71.30685192285961, -5.687994562109289, 64.19972484649641, 83.55490236264109, 1.745207268654866, 153.918731611876, -44.97992155181129, 165.59784520654858, 123.41591146364695, 59.61939814953715, 221.14472622227896, 62.23706934499339, 301.48140249204835, 148.10127342061975, 0.955532325001409, 0.9845317534028212, 0.8243983825426269, 0.8143008724118421, 0.9372824222173329, 0.825838596541155, 0.9783394359172215, 526.5483169647649, 257415.68358144347, 36.59772489167717, 1006.2820571103588, 900.6325163855164, 98.27975783397845, 1.7759965241390593E9, 0.0, 2026-04-12 20:22:04.148
