EXG Channel 0, EXG Channel 1, EXG Channel 2, EXG Channel 3, EXG Channel 4, EXG Channel 5, EXG Channel 6, EXG Channel 7, Other, Other, Timestamp, Other, Other, Other, Other, Other, Other, Accel Channel 0, Accel Channel 1, Accel Channel 2, Other, Other, Other, Other, Other, Other, Other, Other, Other, Other, Other, Marker Channel, Timestamp (Formatted)
0.0, 0.0, 28.92485480627179, 46.58092780687157, 69.4729887227603, 95.3534059161571, 145.55714179682315, 334.23898918688235, 328.66762270270414, 473.0708320516683, 533.4900610778186, 552.1876666034842, 603.2840770787054, 541.014787060308, 550.9348484700146, 401.39532861993314, 522.9778069721236, 0.9702530441199341, 0.9482988940254845, 0.9337720832750879, 0.9595166773257789, 0.8848992867617683, 0.9982714396261091, 0.9207889900909286, 465.26725099876234, 240127.33395425018, 36.600912060324326, 1016.1682344460079, 967.877784957141, 81.045160611053, 1.7759965216622195E9, 0.0, 2026-04-12 20:22:01.679
0.0, 0.0, 35.599727814852244, 58.10778758018184, 93.25252210406731, 133.35980166412338, 161.45865433366023, 309.3749026604146, 306.846597609963, 307.5441386386336, 260.3269787060204, 173.0497018548436, 117.10532444453972, 34.24066324256876, -155.86007822170654, -94.22509170102995, 45.03420328504103, 0.9199210234678347, 0.8152940496028269, 0.8801614319812423, 0.8651194107713718, 0.8547990586196954, 0.938602728781882, 1.0774420829219993, 464.9375629232396, 262112.24942264656, 36.594701752689474, 921.9648688354088, 905.5962492520902, 92.12138184119716, 1.7759965216671343E9, 0.0, 2026-04-12 20:22:01.679
0.0, 0.0, 38.99770138643618, 73.86247269895576, 103.84649615768804, 126.53118619566544, 112.36862481181595, 91.97690149535602, 58.794508539824776, 45.57451237271128, 1.1713822880745965, -9.400114202939093, -71.20736038635334, -54.65148313084694, 80.15576445349537, 166.74927445530338, 320.5536019981258, 0.9346784147286477, 0.8847271301783638, 0.8841035462592705, 0.8166138046554094, 0.9698171212852565, 0.908707318643771, 1.0595181126147493, 547.8060654622562, 245059.126240002, 36.59507304117167, 977.2167108180967, 1090.6129670891817, 97.63778777748976, 1.7759965216712348E9, 0.0, 2026-04-12 20:22:01.679
0.0, 0.0, 44.37265894812113, 75.39442036299076, 79.73315189354113, 78.82286199199636, 49.17816092065428, -11.078649214730817, -29.298570254637198, -32.26169738743461, 13.815300308197692, 87.30163484036, 169.94751345211645, 190.9713159685225, 308.0285741638402, 459.53147048301736, 351.45543120170584, 0.8898664429568756, 0.9090819860294007, 0.8088616369152929, 0.9349300946999387, 0.955052087878209, 0.9315367616884135, 1.0111336915557345, 521.2374544071386, 250062.63276202054, 36.59952817439332, 1060.7820869762904, 919.2840212928073, 84.62909437932987, 1.775996521674258E9, 0.0, 2026-04-12 20:22:01.679
0.0, 0.0, 46.86214823356052, 63.49545626456077, 66.33684836368509, 32.60107923238056, -19.22397042744406, -51.59070027960419, -40.1673021229672, 71.40738524216447, 159.3092594779507, 185.89309685287, 229.52178562775987, 188.87009529752288, 133.0158852043365, 59.649087599070256, 75.50984933733386, 0.8351347957380356, 0.9470054921936867, 0.9296903440982548, 0.8880384893198006, 0.9934377591618636, 0.8392957331226245, 0.9586873100328009, 548.9327462079026, 264759.5744339982, 36.59070346472748, 995.7171673447399, 987.6103458337341, 89.70675559536879, 1.7759965216782243E9, 0.0, 2026-04-12 20:22:01.708
0.0, 0.0, 48.56360676890214, 57.283970013013075, 38.517398608429005, 5.7948531272196036, -37.9002818020965, -1.439412795177347, 93.05129848534916, 167.68992578687363, 256.0766573524344, 221.59813319880618, 78.8946445648227, 67.72156405599203, -67.77634703155417, 72.52257891401631, 230.20602812216737, 0.9175809278784016, 0.8215358295299182, 0.8886399732964052, 0.9862621117966327, 0.8886073991775395, 0.9788589724543987, 0.9281824262145528, 479.56655392097053, 247136.20056729336, 36.60809320838661, 982.34425007598, 1020.4858155050789, 86.5605815739524, 1.775996521682708E9, 0.0, 2026-04-12 20:22:01.708
0.0, 0.0, 45.874979414479, 45.326113659586085, 15.149905287455368, -28.186209768887196, -8.591707692748429, 87.42720743883852, 201.5247001532365, 165.6695916005561, 125.37954069904924, 23.62752477004568, 21.70112853777701, -16.143689059328324, 221.52994291086515, 252.07464195385734, 254.9864580399753, 0.8717700300262531, 0.9724113443546601, 0.8792569898999133, 0.898286627531778, 0.9574348334203558, 0.9978645727679573, 0.9748931738659579, 539.5588361571837, 238481.0738977564, 36.60926326904772, 981.0109152585791, 971.5094539857337, 88.89038004008937, 1.7759965216867416E9, 0.0, 2026-04-12 20:22:01.708
0.0, 0.0, 45.75539635525357, 31.106552361773133, -14.660143795870262, -7.90818602784131, 59.8644198622738, 174.69669988890683, 187.95087989852624, 87.7313056751871, -10.107834305277677, -1.6906873706878685, 129.7082926293763, 245.25785681355174, 288.96974442068705, 142.77513765021703, -121.62047273024587, 0.9010402282890958, 0.845992081335525, 0.8397570491071141, 0.9309447856084944, 0.8424996624204869, 0.9318093034828759, 1.0569298494531796, 462.17075558568513, 272261.103912322, 36.59624781976737, 1060.9485175489733, 982.2952892061674, 98.30245170230812, 1.775996521690704E9, 0.0, 2026-04-12 20:22:01.708
0.0, 0.0, 40.29983680521799, 13.526940763783212, -25.830377217128998, 23.32743667826192, 127.85996803540604, 131.00794594304438, 83.18499979063806, -76.82931244290165, -19.043954032371474, 154.38975933663158, 383.0254984546646, 231.48472759207482, 85.6376989173408, -57.24286186359885, 159.37904009834804, 0.9052226194007386, 0.9569977229163568, 0.9032989637668455, 0.8642488704862473, 0.8208265607142063, 0.8178275154368831, 1.0628338387287712, 473.873316772072, 274465.3577416116, 36.59456661648374, 1047.271321342859, 1009.9406611423583, 94.99525244242001, 1.7759965216942694E9, 0.0, 2026-04-12 20:22:01.708
0.0, 0.0, 36.90482579454705, 4.863484583825905, -8.24782921484919, 61.404417626626, 129.93410735408128, 112.22303120600532, -42.48929553562519, -30.860171350440723, 140.935665785637, 255.98380869729348, 132.36797040894183, 33.549378966290774, -18.758507232465263, 388.25808691829883, 318.622417089157, 0.9717450836053741, 0.816592681094182, 0.8722083712099875, 0.9653881574975153, 0.977985822708514, 0.9378752832138645, 0.9134250878858976, 454.67341603894323, 229475.826299176, 36.5903567299936, 936.6689394217566, 924.7377044100855, 88.48580237524695, 1.7759965216979797E9, 0.0, 2026-04-12 20:22:01.708
0.0, 0.0, 29.276715619565763, -3.384461497578208, 2.6518238446686055, 103.32293992841164, 142.49487039552722, 10.619732091089467, 9.502425709238139, 126.07836367102894, 309.50390197959604, 110.34722204633874, 9.710892938222031, 78.58245729143151, 199.53179079257436, 271.7031717534571, 109.93477872195861, 0.8155472626072947, 0.8770883445826134, 0.9916736374045044, 0.898697726222537, 0.9450109399097216, 0.9619912190017136, 1.0432067349492724, 462.8039732963954, 268275.9438395814, 36.59626773904083, 995.8204778144647, 1091.9473660818953, 99.16430773997912, 1.7759965217030337E9, 0.0, 2026-04-12 20:22:01.708
0.0, 0.0, 22.178889918448075, -17.884143551289, 33.46365078815798, 131.929341730884, 70.25752122292212, -12.935188016935697, 64.73353544827314, 200.51820848657553, 130.64167619857443, -113.39819449991148, 68.17412830232539, 313.83493680217225, 165.57774583750782, -89.66076873637141, 90.41483048203925, 0.8210699219885176, 0.9292838464172158, 0.8498624853984992, 0.8627328374677959, 0.9444542998046476, 0.9860362685216245, 0.9622367954627618, 549.4621041005083, 248678.2327007999, 36.60652131645855, 926.2011333930817, 979.3119025595851, 81.98518834656802, 1.7759965217071314E9, 0.0, 2026-04-12 20:22:01.708
0.0, 0.0, 15.438528185317143, -16.21759555171461, 60.96056759981206, 96.3320176108772, 19.53927381166166, -20.969426973876622, 148.53756613170037, 160.58890748815173, 26.180794328291057, 58.69640759031089, 260.8871473844153, 173.928723542223, 32.127903166971436, 174.89746672373232, 271.57910264177394, 0.8762144199613913, 0.8392626391207743, 0.9304414075686979, 0.9097611397590614, 0.9428642310301257, 0.9180323778055798, 1.0512342772696661, 512.6299958924718, 247455.94791145224, 36.596471332857206, 919.0057504209151, 959.7141109553698, 86.50485362560583, 1.7759965217111692E9, 0.0, 2026-04-12 20:22:01.742
0.0, 0.0, 7.203764969009532, -7.920127771422926, 76.59466679742502, 72.96289571811491, -35.656951010460986, 76.22736089667018, 154.66349498217136, 33.59674087572869, -26.620205891793944, 311.5511254206525, 152.18116902796052, -35.65153183675483, 185.8384350350931, 287.2194774088699, 83.29636558905777, 0.8388631851079872, 0.8592028199085008, 0.9724387171292449, 0.9444647052091185, 0.8389479487532016, 0.8741145178260233, 1.087196714476635, 451.72449251404925, 250765.50077026186, 36.591112056836565, 930.9642354747143, 1061.651381404509, 96.06020305144904, 1.775996521715045E9, 0.0, 2026-04-12 20:22:01.742
0.0, 0.0, 0.7848727423201289, 11.214336304318305, 101.42499603646198, 38.57462289225823, -15.082554232320604, 156.7665760232178, 107.88250070874915, 5.781601901676083, 148.33770928153666, 178.56743548167213, -36.29371554289986, 122.47588810207864, 326.6965913367808, -41.76647905911781, 78.69318324572245, 0.8247830198637068, 0.8505155570947937, 0.90500043889511, 0.9042967575461761, 0.8743808767496275, 0.8936697720004683, 1.0613968721245535, 546.3397119617202, 272157.06803284487, 36.6079213289725, 1099.2837215040174, 966.6289289500261, 81.16338910590243, 1.7759965217192008E9, 0.0, 2026-04-12 20:22:01.742
0.0, 0.0, -1.157851224085082, 22.913426912509088, 99.9336440351029, -7.5178568780348485, 38.76771414094112, 136.92200292899065, 30.754903725008283, 54.483523767682264, 273.06915965781894, 40.2963577170368, 79.25835848846657, 237.2379715017205, 64.99569133468931, 35.944371006806364, 752.590314101283, 0.9041066597319299, 0.8716142143038724, 0.9387892042737919, 0.929373205803787, 0.8327910140915366, 0.9548709082163797, 1.0050132604174227, 493.8374659023451, 241690.51782489454, 36.592043010044776, 1046.3030429841501, 972.3459033366787, 92.09880365230357, 1.7759965217231686E9, 0.0, 2026-04-12 20:22:01.742
0.0, 0.0, -4.324772096900979, 38.46203806592236, 76.5334501760571, -29.260828518118842, 107.69648197584675, 120.05674301761002, -47.38499541399369, 181.29934100065987, 116.20707418658745, -47.58769119214756, 204.11566199951852, 118.42311320792054, -109.2987419300178, 631.5533536406255, 132.63650521798507, 0.9671718900659579, 0.8392616413787132, 0.994272837319318, 0.960667044200796, 0.9846906985977736, 0.8122277436839932, 1.0353414788283384, 510.06497899480695, 248486.95592788258, 36.59410169954942, 933.22813602916, 1089.7538428784417, 96.58683658845575, 1.77599652172717E9, 0.0, 2026-04-12 20:22:01.742
0.0, 0.0, -10.455145960272432, 52.98993857707643, 53.07621718919915, -6.731329002414114, 153.02829146795236, 29.47483080108878, 53.024141850172185, 197.02618828222433, -14.845254099158637, 138.1806683673624, 182.12542809244073, 42.18205757591606, 629.6737750748609, 257.08139450020894, -110.77950780253894, 0.9419522434114064, 0.9148080414614753, 0.895395106924677, 0.8897939834734762, 0.825625766263326, 0.8431570546041036, 1.053094729301348, 549.3866551688349, 266224.8334584658, 36.598802460820046, 947.3498216744379, 1009.7858358944325, 86.87178040533516, 1.7759965217312136E9, 0.0, 2026-04-12 20:22:01.742
0.0, 0.0, -5.359493920408152, 63.40327041530157, 24.05663901018293, 27.75862399696862, 146.17020008335217, -0.19534605845136355, 163.1901336731366, 107.25830193201918, 12.126721451581986, 290.1533322432223, -73.0485725250744, 318.04438819575444, 476.01029555131726, -100.57650364031437, 545.3723472586057, 0.9691790941231712, 0.9226148307059737, 0.8595187009805996, 0.8429677914525013, 0.8082147201388846, 0.898747139084917, 0.9933894362173349, 454.925739026442, 240519.30190422005, 36.590629388196035, 973.7855594581456, 945.246364238431, 82.44658316261652, 1.7759965217352011E9, 0.0, 2026-04-12 20:22:01.742
0.0, 0.0, -7.881034033885367, 74.42193952036637, -1.434702617211471, 61.138958039728344, 83.06559255389621, -23.351365097354005, 169.45986738162978, -20.45061249598575, 166.30526396244602, 134.74204754752807, -40.16609989994262, 519.7434999309406, -137.28021728226196, 255.7046751047161, 154.50238833119153, 0.9664746960947267, 0.879480651268615, 0.9053880832189519, 0.8174568365540447, 0.9781217342167309, 0.9954816492990007, 0.9651583178658931, 537.6001087755387, 240527.12438692717, 36.60949781746065, 976.5199508032955, 1033.7231827986072, 87.11514685884116, 1.7759965217392228E9, 0.0, 2026-04-12 20:22:01.742
0.0, 0.0, -3.0304463705155094, 76.65367367694786, -7.981759576133371, 96.92796235073217, 33.100208722875315, 59.74414579996211, 145.16795369445674, -48.29437770032314, 303.8966528911111, 5.118543598759459, 526.8053938696535, 159.96681734245976, 127.33933209159068, 196.22232332466638, 96.2019854283823, 0.9251949026785417, 0.8703359682756914, 0.9796594958110548, 0.8210926288266689, 0.9130626534658589, 0.9651035713117774, 0.9317850696110994, 488.1542107382147, 247873.91917403482, 36.59011173804607, 996.741646038925, 1042.939885826202, 83.91066615312654, 1.775996521742811E9, 0.0, 2026-04-12 20:22:01.776
0.0, 0.0, 0.30250959047867454, 66.99823324030429, -19.4628615208073, 127.81178683987882, -30.894612663880523, 137.43525641848203, 44.16544343043356, 108.7947695622352, 128.97330010351948, 42.967641956625044, 536.275397470684, -97.02400318163515, 201.72717092910221, -6.86709340129417, 267.5863594475889, 0.863910980691741, 0.9158807177201117, 0.8714872692762972, 0.900668228316014, 0.8285706661773803, 0.9775789051972322, 1.064743745530303, 476.92532510585437, 237984.33541006618, 36.60748273602701, 928.4365605807188, 1011.3800319772464, 86.9034117327235, 1.775996521746788E9, 0.0, 2026-04-12 20:22:01.776
0.0, 0.0, 8.012413081346148, 54.416818192309535, -0.6791733326462506, 122.44940575863127, -34.860600811005014, 167.81353921629602, -52.60167582454093, 209.68527510652478, 27.592611971497107, 507.73954046822166, 65.92176085205313, 164.0314494539373, 72.15608963038123, 154.32842272712512, 198.19171809475938, 0.897038839545591, 0.9410457608636161, 0.8764920223817275, 0.8007248101480214, 0.8703430342301898, 0.897238109617686, 1.0359807663030691, 537.4299402387359, 238819.03262432257, 36.59792535144064, 941.2792322916057, 1039.032306382706, 95.92658136639888, 1.775996521750829E9, 0.0, 2026-04-12 20:22:01.776
0.0, 0.0, 14.129120587266554, 40.450953434645655, 21.391494492635307, 80.76549380630489, 27.61338335695885, 139.11338101489176, 31.9028494785549, 156.39279228498535, -52.8358518798195, 514.1277189197056, -19.432852018555167, 284.33503624933996, -17.91514708837002, 418.4764831350385, -31.838110761099244, 0.9220176923008526, 0.8108182585358842, 0.83714445483183, 0.8997746801009273, 0.8180339560055495, 0.9681395973097425, 1.081320647588739, 543.7566006445388, 260046.9238114951, 36.59833448122978, 917.4733033492793, 992.3986653271523, 85.44046960288249, 1.7759965217543116E9, 0.0, 2026-04-12 20:22:01.776
0.0, 0.0, 21.46600945523369, 25.90812502537519, 46.9782752681145, 37.055935042500884, 77.89584371237785, 42.52594777087598, 113.62758129302202, 37.635976555219536, 375.44198049781556, 63.696683328753466, 168.61055892595397, 23.287212974335347, 260.2041088930217, -23.415825856732, 240.04900541783036, 0.8169634792786654, 0.8687876588304866, 0.893137259007923, 0.8266981403038133, 0.849575012381147, 0.8378525415500012, 1.0931508280081834, 488.13329404425565, 254917.13683078744, 36.596548858412014, 1019.9580129894248, 924.7996744455527, 82.13635100769162, 1.775996521757852E9, 0.0, 2026-04-12 20:22:01.776
0.0, 0.0, 27.85566407603772, 11.349956715416518, 74.8306680239529, -1.077284378380746, 151.63795873660052, -4.899335977167183, 214.6597389269087, -68.12022278039134, 483.50029094362594, 30.356835875892756, 326.56208833229596, -33.08454407882249, 247.38583845514074, 112.93553069016968, 193.17110943184002, 0.9142744916797304, 0.955977460263738, 0.8546940451645898, 0.9035934588784477, 0.9616365424214807, 0.9555874612257546, 1.0984571560294711, 533.3572620986487, 269873.7642699823, 36.598865362889036, 977.6873592328642, 1086.061487614396, 82.3604380543301, 1.7759965217628517E9, 0.0, 2026-04-12 20:22:01.776
0.0, 0.0, 35.85307068671264, -1.6855442868636032, 101.88556134796562, -28.680394310026458, 127.35887370205911, -19.993848463722514, 184.62813117710522, 43.68444838595319, 255.49351460170857, 129.6836784692983, 41.22990546672854, 206.08747993700615, -95.08266644154583, 348.6078764248977, -119.19086463407484, 0.8844396070762122, 0.8237015676272926, 0.973477886233232, 0.9016447725246927, 0.8276463007629649, 0.864249675397658, 1.0558668041848813, 479.8478868948299, 232733.4809520946, 36.60173226265664, 1006.651324150277, 956.9652874540774, 82.12449533892986, 1.7759965217663884E9, 0.0, 2026-04-12 20:22:01.776
0.0, 0.0, 41.947134473461446, -7.371226685523759, 88.62696574463158, -4.497435617513872, 111.66595139037193, 56.359686603795524, 52.875827888678174, 358.57725333841984, -72.95241949292674, 282.99670667499595, 14.767011134135075, 332.8974111026647, 91.20534913622096, 125.10073927130296, 273.9680470972984, 0.8420628256169901, 0.8382462258308118, 0.8226452136864624, 0.9510275653015164, 0.8690322605596914, 0.8812506834276808, 0.9565148473612831, 525.7372336493697, 249994.23076008074, 36.59492007485203, 930.6699110168663, 937.3170330947644, 85.39879109885933, 1.7759965217703803E9, 0.0, 2026-04-12 20:22:01.776
0.0, 0.0, 46.75689807095094, -13.255090331711216, 87.02792699489149, 16.698142301368932, 51.28669578200655, 129.26249414944007, 12.026898283355195, 430.8127503413441, 15.310401735475622, 154.07723069668776, 173.544527570787, -39.03310152306719, 267.06761603993436, -91.5021342665423, 192.6683315729087, 0.8955831479810399, 0.9573718555352216, 0.901204898670155, 0.9927385256198974, 0.9963886646746795, 0.9690007643704611, 1.0250558793389575, 549.393594108809, 236031.18243070386, 36.591112167130134, 1054.6738550492744, 1012.8565861058172, 91.31323253289739, 1.7759965217743835E9, 0.0, 2026-04-12 20:22:01.776
0.0, 0.0, 49.04415062690474, -7.219731278814862, 69.71299350055111, 62.15773898951668, -21.571363954874954, 136.76010417799858, -3.390837743321171, 118.1754250760046, 159.86304887665682, 7.32787001152829, 339.1298700616536, 77.21255886607523, 138.70389829979044, 387.00138961780124, 16.442061639659244, 0.97940051304058, 0.8887929896382042, 0.8265409656391525, 0.9332945576409454, 0.9750729910438339, 0.9344615878677559, 0.970105070817899, 531.332991867109, 243847.89938402985, 36.59646153090936, 1040.2349274514368, 1063.1156699737621, 96.00104999179368, 1.7759965217778852E9, 0.0, 2026-04-12 20:22:01.808
0.0, 0.0, 48.57239142372828, 0.5685403776049753, 38.410664941164235, 105.19983592225735, -31.668320371399133, 139.84034028647528, 165.90213861314888, 21.607369249013416, 224.41449428385505, 3.9398775410185607, 88.51975129866105, 346.76828968989116, -64.21526855337856, 183.9180524971915, 446.5318462894531, 0.9132124212612848, 0.9364194170217145, 0.8055994348821974, 0.8481423684123282, 0.9707806154470472, 0.802566597122894, 0.940276023778542, 494.70666578434464, 266966.493666696, 36.60997539423787, 939.3632194553741, 961.4203894256476, 85.53278953640249, 1.7759965217829137E9, 0.0, 2026-04-12 20:22:01.808
0.0, 0.0, 46.037771648888494, 13.936935948147475, 16.66212899870163, 135.52042433800887, 7.596858548076561, 50.34458081341817, 325.74252314772644, -56.375526361637924, 118.84647599057361, 271.06907185354635, -102.68931841230003, 219.9021428014551, 230.06120929756872, 22.282853050216147, 797.31525673793, 0.8986378530913833, 0.9838586949793834, 0.9704780493815403, 0.808929484195594, 0.9285541511423828, 0.8065396762220445, 0.9706704059725549, 535.6947680288089, 243753.94240050833, 36.60923861865108, 1042.5863954846254, 935.5942396889934, 90.07201666768265, 1.7759965217869008E9, 0.0, 2026-04-12 20:22:01.808
0.0, 0.0, 43.15110542640467, 29.04042907354544, -4.983824351775915, 120.73537013808355, 59.875703247449685, -8.187124443020366, 339.2266649159444, 93.10893751692511, -75.47023138053675, 185.67633097110655, 123.45253224747091, 37.00703447733163, 362.00909196188263, 352.0543608439335, -15.456402397712964, 0.807143477713773, 0.9316910796298682, 0.8937870164103396, 0.8602333535974275, 0.9165002090771576, 0.8966513444996048, 0.975654252051131, 471.7512072989825, 241960.7383835041, 36.60913925618288, 947.0625043536622, 1032.1980328456386, 81.31376596582247, 1.7759965217911344E9, 0.0, 2026-04-12 20:22:01.808
0.0, 0.0, 41.164487459844366, 42.72551300713879, -14.794301846150908, 75.47613258094587, 135.01664264544723, -18.799712236683305, 82.24816792812824, 156.83561811377942, -48.60718753973677, 73.35668885771548, 243.25175448565955, 60.37233113999923, 33.33610444557479, 819.3446696637989, 158.58074754084302, 0.8772056568102279, 0.903706550623509, 0.8983199474922092, 0.9520044491090182, 0.9571278717566699, 0.8822576779738502, 0.9832232593165738, 502.7599807471211, 265709.376642376, 36.60338286212261, 935.6923274067871, 967.8623894850963, 81.54346605413262, 1.7759965217951367E9, 0.0, 2026-04-12 20:22:01.808
0.0, 0.0, 34.27886687175874, 56.92543546498992, -9.898146565536642, 33.342697175209224, 168.13409821125163, 86.16315955561215, 21.585196343359883, 217.07044519386778, 134.24059937069796, -71.4724894854692, 136.52146194859512, 224.32768269515597, 72.05673230995609, -51.856259271056445, 249.52838522272594, 0.8485583695468775, 0.9580705747831942, 0.9530662025537283, 0.8268373685289274, 0.9874264977515678, 0.9824039794327258, 0.956065294513751, 535.9737110713253, 230741.91493264056, 36.593336657718915, 1083.5562943736968, 1038.3103797716744, 99.32854543150499, 1.775996521799139E9, 0.0, 2026-04-12 20:22:01.808
0.0, 0.0, 28.185188257452893, 73.39713752089278, 10.86567396659946, -3.673800981925517, 144.86930482387595, 250.7910135884387, -39.447206322147764, 61.132701128744046, 172.96266473914258, 109.44080346067845, -97.25196545199998, 203.92356306236584, 729.481649939629, -46.08743676903984, -117.6043912769652, 0.9650703245890723, 0.8837556210151348, 0.8412165590012098, 0.9220926826347681, 0.9691122638560258, 0.8370453055931221, 1.0653288033678576, 479.5774566546669, 238264.4685321604, 36.60480253184268, 942.0243374787254, 1051.1852690714475, 96.967223588499, 1.7759965218032234E9, 0.0, 2026-04-12 20:22:01.808
0.0, 0.0, 22.28441191078386, 66.61790088859931, 34.826886319093, -37.571569892043044, 72.94884051817249, 352.2723070865844, 57.75063584881477, -64.21635595064342, 113.35271906431316, 259.8373216086975, 77.40064617254347, -131.5625616517812, 190.87845578178096, 345.3926124206327, 91.79325487503472, 0.9119613024096797, 0.8856033326928935, 0.999145229266076, 0.9041105845240703, 0.856248684643964, 0.8125744822657677, 1.0675611023815823, 450.51909699879195, 268162.44929783395, 36.604752362578544, 966.0862904061297, 1068.77825364598, 90.21464975352048, 1.7759965218071868E9, 0.0, 2026-04-12 20:22:01.808
0.0, 0.0, 15.351637371640251, 69.8239543135382, 66.2598165879098, -26.67415320914857, 3.8964558459881147, 167.35242123225137, 190.8938369275821, 27.827911672986524, -16.764005483204002, 167.50727440491136, 311.603703740228, 211.66087307172052, 67.56641203280822, 124.52495486041165, 517.3107438176462, 0.9560561465201104, 0.8289832918812958, 0.9796180822350323, 0.9970964068647376, 0.8818279086774335, 0.941309643790187, 1.0719667044010357, 547.5043960690988, 255798.17497954337, 36.59667171872517, 923.2593554491009, 930.8057477212035, 86.36555435788449, 1.7759965218111768E9, 0.0, 2026-04-12 20:22:01.841
0.0, 0.0, 9.450058584791487, 67.44821599459758, 89.03449281100029, 27.46894084759773, -7.635395248283217, 64.6292118976021, 196.55103149833622, 166.0458941978754, 41.51426385979957, -60.14924305984579, 160.4400147635679, 638.8858341312991, 157.0107010859266, -37.35081371929195, 113.76176292763958, 0.9589571934498352, 0.8828580792291633, 0.9307234181425154, 0.8434326600921378, 0.9564021707947085, 0.8939194480444129, 1.0689744856662058, 465.3747737557109, 271316.29614501493, 36.59349964829741, 1015.5867116272284, 1008.1621355848624, 96.65963072607849, 1.775996521814705E9, 0.0, 2026-04-12 20:22:01.841
0.0, 0.0, 3.9998622411271505, 51.38523813568547, 102.77725918871622, 63.26969483613105, -10.54956270402326, -26.522119591621106, 109.07329497974709, 215.89781134566815, 173.08470099451625, 49.758292785176046, -93.23079912280673, 277.0377644317806, 379.7161614273556, 261.28844048569306, -25.722090339470043, 0.8587310004682047, 0.9505395406418174, 0.9925028846554648, 0.9226613274219552, 0.86652367253063, 0.9618265463246315, 1.0863163756609762, 533.712730529749, 269503.33096945577, 36.59250901877613, 973.6522400352867, 1058.5878483341191, 80.73213634171454, 1.775996521818709E9, 0.0, 2026-04-12 20:22:01.841
0.0, 0.0, -2.53741622624365, 36.495581678270774, 83.47406429106675, 98.75608288458619, 37.270643462958525, -21.85308232561485, -3.82606235783679, 135.64324701099994, 254.24843389238163, 186.05244430872483, 112.43246152803411, -146.73888128445708, 7.384047154715773, 211.05999060845804, 488.7126169995702, 0.9649763477326095, 0.8830405192871301, 0.831004040645397, 0.9697728374589588, 0.9014153088321645, 0.8101726603741953, 0.9102034985571013, 454.0127430800097, 231798.75703095688, 36.59400524205748, 979.3449996430946, 1023.6700580329885, 92.4712697178849, 1.7759965218227303E9, 0.0, 2026-04-12 20:22:01.841
0.0, 0.0, -6.319410983270597, 19.500346399970184, 83.78381276382632, 136.22801804412924, 104.86567609841758, 33.54684792946878, -65.64093928457058, -19.74826607026239, 128.5889472262082, 177.92133867685936, 549.6596900695064, 140.77615583316447, -57.245717348037175, 93.37879664764799, 107.20493444619038, 0.9865677197697001, 0.823005357796329, 0.8332704818532441, 0.8506624610504315, 0.8474372627448342, 0.9460139662192552, 0.9114685569631338, 515.9589913619918, 274490.84631519293, 36.6075858515714, 972.7141465627756, 1097.0248551525638, 94.31869502352293, 1.7759965218262277E9, 0.0, 2026-04-12 20:22:01.841
0.0, 0.0, -6.784416817890026, 9.31507669972154, 54.45434515503052, 98.24763501646706, 126.47736835048268, 99.82832634550608, 24.629858435302324, -73.23658942139085, -31.47175564055746, 62.92748069136862, 251.18552446861173, 292.8098152684417, 272.0922870807366, 165.9558663450161, 116.14475050085952, 0.971533796402643, 0.8101497683794713, 0.9301583815351421, 0.9394541885258992, 0.8901581504097223, 0.9456088030339761, 0.9662396059858088, 481.43022091376326, 248397.12467819295, 36.5997629610213, 914.410591061549, 930.8894482749236, 88.97460450642433, 1.7759965218313103E9, 0.0, 2026-04-12 20:22:01.841
0.0, 0.0, -9.593103592320759, -5.018197643613711, 25.17877017552361, 80.76633477338835, 151.0389909842851, 197.7188544137466, 119.6248611395738, 78.10331094995993, 25.523798525902833, -13.09230744847821, -10.34807754508492, 72.94485402806586, 191.254815106725, 217.14979979724882, 345.2143972752149, 0.8119625617596723, 0.8148094968098513, 0.869206513510012, 0.9998176185547553, 0.9077364701382397, 0.8338061063971608, 1.0615793693166582, 498.823312630443, 229620.33082791735, 36.59308087248182, 1030.4238510202547, 949.1635486379015, 98.55480974355154, 1.7759965218342328E9, 0.0, 2026-04-12 20:22:01.841
0.0, 0.0, -6.966750140195323, -17.254259655732106, -1.5309964146197075, 35.74793900573513, 82.3666405741167, 157.10051296858205, 159.13801706648994, 207.43700495388285, 151.63404425086054, 186.8862837456604, 48.22879677633827, 14.734198405751044, -135.18017459583143, 60.81132176796203, 268.8907175071585, 0.8499237318274229, 0.9689963712678503, 0.9186101709500606, 0.8967632327686794, 0.8632457198197311, 0.9114834021478843, 0.9600080204873781, 506.9547646841336, 240564.21146888493, 36.59427161170442, 987.1224024095111, 1039.125374513296, 87.53229017700271, 1.7759965218387525E9, 0.0, 2026-04-12 20:22:01.841
0.0, 0.0, -3.0366686423281983, -10.736249562605401, -9.369592953705663, 3.189585406061127, 28.706819567196888, 75.81574017960142, 151.89128127778972, 173.75189027822768, 251.80793564610815, 548.4265910633939, 212.75453685402783, 201.34690201090763, 119.44301364910234, 89.2651772723489, 72.75737183048881, 0.9410475020661094, 0.9977809699016237, 0.918772320665474, 0.9857675696958207, 0.8001244333130852, 0.8071407382492299, 0.9067110495287339, 511.1902255601145, 251735.6210486373, 36.59181820614373, 946.9529043336188, 930.2987510130033, 98.49657743117099, 1.7759965218427413E9, 0.0, 2026-04-12 20:22:01.874
0.0, 0.0, 2.6543699512409873, -6.032961090242267, -22.754125506354086, -15.382898239194262, -9.939763183810271, -25.02065267179482, 15.371167893804724, 71.61549660146235, 115.06214110572797, 154.4591765783224, 297.9794513729794, 385.5471495621653, 391.875470111371, 416.69864563085173, 624.0028843181252, 0.908892183461394, 0.8242646189656714, 0.9721723985990908, 0.9274174362856417, 0.9052082047758993, 0.9689515310290321, 1.083424401283063, 468.6563024504725, 276911.7121461015, 36.59379967760251, 914.4125331001419, 1027.665712291089, 88.76820218907312, 1.7759965218467336E9, 0.0, 2026-04-12 20:22:01.874
0.0, 0.0, 7.7929637283488695, 5.510000117711083, -7.14106785390814, -0.29927757945080913, -25.3005129617288, -30.712875629482497, -39.41256347580554, -54.062197111738215, -22.565704046962267, -0.19085886421596854, -42.264520002128194, 16.236158237331423, 120.23989381356617, 268.57390609812484, 188.01883729622088, 0.9723677401527381, 0.8525976670637903, 0.9422040271895596, 0.8488465954864978, 0.9056405160829101, 0.9661973627430621, 0.9706512780909543, 479.746047915852, 245344.36512814398, 36.60567590463754, 935.4432036672359, 996.794073025758, 96.92165658440969, 1.775996521851133E9, 0.0, 2026-04-12 20:22:01.874
0.0, 0.0, 13.83896959053548, 18.129469343088317, 17.280148239296228, 23.623969430398528, 8.971639224328975, -2.1402688234021525, -5.604296634348458, -32.21409352445288, -51.040077376574374, -68.64434190121912, -82.31793472218698, -60.87867510841809, 34.139651243925286, 8.917977376902513, 5.965426541893123, 0.9976438870808523, 0.9019991817785525, 0.8610161810697076, 0.9387565996933728, 0.8839538965030356, 0.9826338295961224, 1.0463681320755052, 472.20183729185305, 255078.62181782268, 36.59381476343412, 1051.259487542439, 1048.7883051278154, 91.61717152434431, 1.775996521855131E9, 0.0, 2026-04-12 20:22:01.874
0.0, 0.0, 21.430432879027357, 34.40049129141649, 49.343106182607904, 61.145958771385, 85.15831529367102, 95.96059283346547, 110.10028096256647, 132.2644674984354, 285.7938489831973, 175.50682265319276, 177.72092913269802, 274.4802854530134, 249.60809639710703, 714.252664392669, 353.1800608061857, 0.8171370386046458, 0.8219427289653546, 0.8006423630846289, 0.9014772242041601, 0.9368364152612566, 0.9996003010934881, 1.06176878212526, 525.0989470055645, 252201.88120835103, 36.59563270761523, 930.0586837612334, 1096.1783995200972, 99.45172944619827, 1.7759965218586724E9, 0.0, 2026-04-12 20:22:01.874
0.0, 0.0, 28.87915461842008, 51.05826941184979, 70.24119492271373, 90.3143669683206, 144.75605227487597, 192.135155264295, 174.99419193352298, 212.65063627818353, 552.7687703024533, 317.10401346582967, 232.76027406717304, 213.45848247206857, 461.8383110718587, 237.04431069351594, 267.9010915184928, 0.8874461070072944, 0.9231562994979102, 0.8733235222135284, 0.9087645289073022, 0.948466784269152, 0.8191488020888514, 1.0098406040909158, 474.6352578401597, 236034.4828962629, 36.60545857442728, 908.0590944718502, 1028.8266922334672, 94.6972288284168, 1.7759965218621795E9, 0.0, 2026-04-12 20:22:01.874
0.0, 0.0, 34.281274919628885, 63.848464056398264, 86.8423164132393, 125.32477114294147, 166.82115039638416, 135.60976871596986, 132.48563566596218, 134.57830642775787, 253.61992100660257, 85.1833573581581, 74.34941458274332, -34.25728401093127, -100.82314466094908, 11.510443105087688, -163.24415287145797, 0.8203864497396103, 0.8417921836575529, 0.8102781224968392, 0.8387514345592437, 0.9304695687247614, 0.820401780858465, 1.0394008164442032, 490.8007425986666, 278268.16095687525, 36.59117020322299, 1028.5594425394584, 1045.5998356637533, 80.19257832780741, 1.7759965218664544E9, 0.0, 2026-04-12 20:22:01.874
0.0, 0.0, 42.22066157391008, 74.30488456829397, 94.17226855399423, 114.38011341882356, 121.44055679821145, 91.96337796464385, 58.72786213780717, 36.4041939485215, 29.834473457692155, 5.210828299808242, 28.26000675128867, -29.08192614466165, 130.27411325161526, 160.2608645323245, 188.9114835719749, 0.9631018159554213, 0.8331856719873069, 0.8951100589525949, 0.9158869275012788, 0.9398746379096191, 0.8704548238960732, 1.0317467534279947, 515.1857816157759, 241453.8505148139, 36.60468832615469, 1000.7712093143683, 977.3750684785687, 83.38447326378672, 1.7759965218701987E9, 0.0, 2026-04-12 20:22:01.874
0.0, 0.0, 46.593036808012535, 74.60807252387494, 93.28694786061772, 76.52062127277746, 49.32662708786151, -6.738821475439238, -58.51715705727548, -68.98781118780292, 17.71926805771409, 74.3844399766327, 191.86241492462497, 355.8491567177334, 391.32774332037116, 203.73239796332547, 370.84845996871024, 0.8413744223947307, 0.9477738200773632, 0.8782110791684771, 0.8237116555233088, 0.9627057214682332, 0.977038753094641, 1.092208997002093, 478.3898368830324, 228346.8603413555, 36.597275274928094, 950.7845599122209, 1026.4938880183522, 99.00474624806658, 1.775996521874732E9, 0.0, 2026-04-12 20:22:01.874
0.0, 0.0, 46.16029641579345, 64.11502239979663, 67.23364527102079, 39.37301944075547, -5.922020097931053, -26.674209167549577, 12.395715932353298, 122.96788282430337, 157.09623601249126, 290.3418057103522, 230.03989906210668, 184.1909183936266, 133.9745371514279, 72.31659347661295, 112.9577395629737, 0.9167705366877735, 0.8455173242324632, 0.8580229444504167, 0.867887417046251, 0.8831243960131269, 0.8825535546213682, 0.9665939827030064, 544.2841110282475, 233878.37344166686, 36.59814524047452, 1089.944544995469, 992.1584211454162, 90.10087844082942, 1.7759965218787663E9, 0.0, 2026-04-12 20:22:01.907
0.0, 0.0, 48.50668118122038, 62.3330489425863, 38.68184339088099, -9.686204238770685, -30.278481365473993, -15.513056821461163, 91.12183029531016, 316.9241885202158, 258.91562517106775, 161.84011957332368, 82.6198188196454, -73.69728306629281, -182.44812108211232, -16.133811068648356, 235.8283869829784, 0.8957833661942392, 0.8900010922767048, 0.8205723271729385, 0.9986495022502134, 0.8236953053465883, 0.8286033792280533, 0.917218400533871, 479.07869470207993, 249377.65626233263, 36.60737901887058, 933.0578434807697, 1099.3944239943096, 82.88350866667199, 1.7759965218827665E9, 0.0, 2026-04-12 20:22:01.907
0.0, 0.0, 45.26886076630702, 46.045815023870716, 10.141928464228087, -33.46503903795664, 8.025119006166115, 89.80444820014263, 208.94518690642758, 216.5849969650073, 127.3704137169731, 44.45899809411587, -35.444464004139036, 123.90430425158695, 220.31848178258434, 452.60832319010836, 204.7433054022815, 0.9636195653272629, 0.8925844484206686, 0.9830856773765381, 0.9049911601905888, 0.9457549883268089, 0.8217760808040712, 1.0395554581558875, 540.5559582671879, 265644.15537937224, 36.60360712282085, 1025.5479805399532, 952.618159176486, 92.0437120101763, 1.7759965218864195E9, 0.0, 2026-04-12 20:22:01.907
0.0, 0.0, 45.8458393762739, 31.05172638240519, 0.06577746316675359, -15.8781881157025, 59.90173087326886, 165.5225134242143, 200.23664883146438, 87.62592587056946, -13.630253019083952, -0.049102500212896416, 124.97114317602802, 616.6183943006245, 248.37960805488228, 127.87742429550772, -196.49534676589354, 0.8895146641103219, 0.812131447751786, 0.8658127880416358, 0.8840827583003664, 0.8707993430020207, 0.8947606894354158, 1.0040579302943875, 462.6012613072563, 233878.26658504436, 36.59009969565066, 979.831258854825, 978.5065479769888, 97.01949699522744, 1.775996521890455E9, 0.0, 2026-04-12 20:22:01.907
0.0, 0.0, 40.24303863504883, 14.092441542000856, -20.08491735540354, 15.041840572784096, 118.50682521960096, 186.88463191002654, 83.78744364854002, -24.55053712134621, -20.420156839511463, 193.8044765791991, 267.40927398566873, 441.04134625617013, -55.128409504543356, -19.516332820992545, 159.17681734398525, 0.8481627074623794, 0.9753946709116582, 0.8329791460812209, 0.9562989715894651, 0.8860106921591551, 0.8202318267594005, 0.970667609276698, 490.3168715170559, 255668.39871090854, 36.60945771377119, 935.0384740229479, 931.3231965142935, 86.42609867302752, 1.7759965218944535E9, 0.0, 2026-04-12 20:22:01.907
0.0, 0.0, 34.184914415164116, 3.8399060073156903, -19.84275474221385, 65.98305618984166, 132.76826329833128, 104.57142256668996, -10.870934304226353, -14.504852868129348, 148.27404500869505, 282.0588741262146, 274.1530793075064, 27.97099973400455, 59.0126884705617, 378.45867241912356, 849.2042038676418, 0.9068963920077703, 0.9169934820859781, 0.8427560937907429, 0.9322254667685413, 0.8438088778485691, 0.8969424190255153, 0.944247516680298, 483.969277939542, 261980.48836022624, 36.609811709003104, 1044.209456589601, 1053.2095025260144, 87.75180748718377, 1.7759965218986697E9, 0.0, 2026-04-12 20:22:01.907
0.0, 0.0, 28.72848376079297, -3.1359880523661943, 10.029966607137752, 92.71316753457027, 129.27878846698493, 34.18597861666445, -55.57049690325536, 135.33973480083523, 288.20885887744595, 110.59181851412903, 2.6416605442490493, 85.4528835903497, 359.24718888012296, 181.54040045824155, -81.62833115893125, 0.9765286463785582, 0.8510138232392718, 0.8872907802875035, 0.9216055556886488, 0.8325100720445447, 0.881531539671859, 0.9763432573304384, 523.07413101497, 262467.282137562, 36.59450818708982, 1062.8319983566564, 973.5218559598547, 95.85143479596906, 1.775996521902701E9, 0.0, 2026-04-12 20:22:01.907
0.0, 0.0, 22.15239197897433, -14.452956820832888, 33.642037351920536, 111.57019302838725, 69.57333002146044, -17.67768742557452, 123.82063729370881, 241.3272137735565, 124.90612932111797, -8.5770913726181, 189.4657301989671, 288.15547824685336, 211.70905540232383, 43.16515553990607, 193.0766877628023, 0.9691500354186225, 0.8470725444591465, 0.8799544277319908, 0.8490604805946137, 0.9661814126140867, 0.9339349389365764, 0.9558221545790243, 480.1212179498764, 275970.06655299716, 36.5990657149589, 1008.3807596009843, 1063.420644288544, 83.15421854751891, 1.7759965219066725E9, 0.0, 2026-04-12 20:22:01.907
0.0, 0.0, 15.161291993490673, -11.905922712769566, 57.69728700906279, 98.95920920949067, -4.018276062559252, -1.279982046832231, 296.74497385127404, 178.89027096448763, 9.458716352964359, 49.73010167280484, 292.90799460016956, 155.6861318566562, 17.979622461688365, 163.09868047722532, 432.76611496412414, 0.942223499826378, 0.8842157684240944, 0.9960099485909405, 0.9631103660326635, 0.8817084403975526, 0.993250184931244, 0.9162058188625459, 535.3941460101565, 268393.9388226118, 36.596206820485854, 1060.8180029953367, 1069.6176658298684, 90.04469412408388, 1.7759965219098942E9, 0.0, 2026-04-12 20:22:01.941
0.0, 0.0, 7.3220583961728085, -2.7392639390195797, 89.09011591706928, 82.50131247094295, -40.082820924074426, 75.33043389328218, 406.2054139781386, -1.019929459660844, -51.224140112265275, 227.67133918583784, 146.86376238116185, 24.711738996633983, 179.4813717969204, 862.4393404481615, -57.494389749736115, 0.9351581552767015, 0.8218088617850331, 0.8668630469293981, 0.8298541384482204, 0.933830568878456, 0.802888392250953, 1.084283708932913, 540.0994581801215, 251855.87285433413, 36.59182783609499, 1003.8079206893952, 1050.3218336134307, 94.69485608061693, 1.7759965219145367E9, 0.0, 2026-04-12 20:22:01.941
0.0, 0.0, 0.7224249813835506, 8.35856267684768, 91.40591863728469, 34.79105609675337, -9.209913675838905, 139.25606180355038, 104.84549074484438, -50.60461065900466, 183.40687031376646, 197.42515907623363, 41.89648393086222, 126.20906913969026, 394.3253842383954, -18.03032971532963, 4.925548510196876, 0.8777699753981852, 0.8535699830536092, 0.9179617344615437, 0.9582085826522891, 0.8110070076330959, 0.978371358929406, 1.0596656871220362, 494.63278361177737, 248813.73951192226, 36.60435587894184, 999.0901585339504, 963.1442041760106, 93.15194418557905, 1.775996521918491E9, 0.0, 2026-04-12 20:22:01.941
0.0, 0.0, -2.7368140718841403, 24.170979605724114, 99.60765122871895, -4.870476374728945, 40.470713259932296, 188.5706956687158, -1.0137456317463602, 52.354210795179476, 247.06115149984916, -2.9127537451846877, 26.11081562854862, 338.252788808471, 74.48818572193808, 34.151872889101526, 348.94983140708484, 0.8207618993150151, 0.9632079056790054, 0.9476046494550249, 0.9239786652174803, 0.9666904817086063, 0.8048947260652516, 1.0553528411216229, 474.7104026990747, 274036.3435735415, 36.606125390269156, 972.1516145003607, 974.7066839723407, 84.14647911499834, 1.7759965219229026E9, 0.0, 2026-04-12 20:22:01.941
0.0, 0.0, -7.265353898231595, 38.81862223200848, 75.14324184090049, -18.669196580216763, 107.47354227871509, 120.39769244546746, -3.271868257953642, 147.79937422644397, 121.85925291552103, -64.3635201139983, 294.7179521425421, 112.63077815875982, 16.40257065267531, 475.20119020195426, 142.07692590691272, 0.8766333171755583, 0.93554673595356, 0.9607147056754365, 0.8859887909756271, 0.9910444305215772, 0.8785850321153327, 0.904364169412435, 506.52876173819106, 259664.28846667716, 36.59278853747462, 1010.9257285098824, 953.5745806865463, 89.3156949709968, 1.775996521926858E9, 0.0, 2026-04-12 20:22:01.941
0.0, 0.0, -7.612253425267092, 50.94244313074249, 51.191567853830904, -14.948914841078278, 122.319847383341, 15.27393865760827, 31.605878231137368, 246.76424920454207, -32.87283079370519, 281.2718264940904, 224.03088477559, -148.27032670847302, 724.0928628307365, 145.03850616471985, -25.436522783539488, 0.9829258390680492, 0.9675814671713835, 0.9787748610917067, 0.9527503579549678, 0.9686740757403826, 0.8702975840741632, 1.0827295820028575, 487.6559227683409, 229994.94350230577, 36.60744848366429, 958.8430183865746, 1026.3147119587072, 80.5675914310089, 1.7759965219311457E9, 0.0, 2026-04-12 20:22:01.941
0.0, 0.0, -5.762317006207066, 62.572376386223084, 24.072214586462053, 24.030683942202465, 146.58074922658832, -38.99973473299599, 163.9757171779272, 97.88401620117725, 8.17868084735396, 320.4626641444977, 1.8426715023339852, 175.38875250786745, 466.5313645448408, -187.5382796082962, 480.52198460676664, 0.9538680179360214, 0.8875701093303832, 0.8818840187615965, 0.8076313028240636, 0.8969604256137845, 0.8647269327546492, 1.00280027803714, 546.9957133266406, 249555.0413791133, 36.60597398959799, 1051.1287277629506, 911.3601163114644, 93.6581735557345, 1.7759965219348905E9, 0.0, 2026-04-12 20:22:01.941
0.0, 0.0, -8.735929044656228, 66.32362982129901, 0.3526571503248519, 62.864540245432565, 82.74103095223812, -37.500989080266464, 212.0131506104796, -55.42198924568663, 132.2937238490167, 138.8780454028289, 4.5375995426248465, 418.9153170173446, -106.07644351741487, 386.88403538400917, 111.70917943846094, 0.9266631780148301, 0.9998634208888341, 0.9856858925430924, 0.8320665663452601, 0.8636760003471716, 0.9061457010344934, 0.970235101702901, 462.6452480753134, 273884.93595978693, 36.59171187983177, 953.3270377438965, 912.5702261441211, 97.71741163759474, 1.7759965219390209E9, 0.0, 2026-04-12 20:22:01.941
0.0, 0.0, -2.7979605494014486, 75.16290499593916, -13.773965695378791, 93.2330672711688, 22.216579099877585, 116.51997131771071, 155.07206479795747, -39.421347740365235, 193.80765276272172, -18.33021692386336, 290.6552913849192, 58.937614407185194, 126.25519935560148, 225.9633193315437, 76.82469626580186, 0.8225646635535147, 0.9592243492350018, 0.8719661680866959, 0.8375825239787293, 0.9740250344175655, 0.86144954268698, 1.0532555845822313, 458.34071625364106, 250019.3747882772, 36.59488758839707, 1061.3905568043313, 983.2975727103868, 84.37726437732866, 1.775996521942918E9, 0.0, 2026-04-12 20:22:01.975
0.0, 0.0, 2.319219573685867, 62.03304023210418, -25.255638447416246, 134.83333590993158, -17.388124285114458, 282.2083533596525, 9.148855641109293, 103.0347845700531, 123.93133445534163, 21.043085837875438, 246.72753571124184, -142.7584532160712, 305.2051359731061, -132.24500944589533, 280.65405766254787, 0.924883795656328, 0.8310365729569076, 0.8257769475180353, 0.8334330045004955, 0.8737257873295559, 0.8737192582656741, 0.9269690919798933, 451.8893424766101, 254964.8091022543, 36.60512825085062, 1034.0135388190135, 1001.2161693308561, 96.92621237310757, 1.7759965219469445E9, 0.0, 2026-04-12 20:22:01.975
0.0, 0.0, 8.25884397754987, 52.016442508323536, -8.43464229457377, 114.592510730335, -32.018812810986105, 192.38333764276388, -75.80994941317519, 198.025953777712, -23.283921147613384, 243.00417857868487, 24.482642526807908, 267.27172268460413, 57.35728057292181, 163.63490247512846, 181.78336566895473, 0.8285323077639273, 0.8567617030826772, 0.9660305186677104, 0.8486851102700073, 0.8150624460419525, 0.9576700697191775, 1.048745687319752, 528.3493454777498, 242080.479800712, 36.605972287705775, 1035.9269438536662, 933.4887750787581, 96.63441420832768, 1.7759965219509583E9, 0.0, 2026-04-12 20:22:01.975
0.0, 0.0, 14.363822795002864, 40.06704133863817, 23.926987185909116, 86.44317655516389, 15.096448694309494, 123.21581880813713, 7.559506094172846, 194.32154525521696, 46.200421401024315, 291.59689891559196, -23.896390968866626, 226.18154213648836, -25.279166199054004, 439.45180251698685, -59.42191351513662, 0.8486531855173896, 0.9927479260101378, 0.9701625381531084, 0.8517202034887846, 0.8859216566627047, 0.8013159605347865, 1.0813773494212238, 522.019763646232, 242320.56550498374, 36.59463304841819, 959.1430887457178, 1065.6119593069584, 99.66644705639759, 1.7759965219549797E9, 0.0, 2026-04-12 20:22:01.975
0.0, 0.0, 21.481987586892124, 26.285674389587683, 49.30210538124355, 37.832290780105176, 75.83188029670583, 48.259299505800755, 133.91843297487003, 36.7891099228199, 269.5664469728723, 44.90599182358983, 215.7879422131624, 12.942287124582847, 232.17422232603965, 33.42721432884589, 572.5829687098334, 0.9218997854988228, 0.8611236377988135, 0.847360381296011, 0.8034419077240639, 0.8216910754688446, 0.8481824847239093, 0.9991335349946224, 476.46908724373645, 270337.6252466168, 36.60223745395163, 1024.210283827698, 1072.0249078268416, 96.74727846036568, 1.7759965219588673E9, 0.0, 2026-04-12 20:22:01.975
0.0, 0.0, 29.143106529538024, 10.329025445052405, 77.64905241627683, 3.2082006807019923, 139.0629898315223, 9.691037515331722, 153.5358371904323, 0.5296387047298481, 521.6200870715426, -46.9280880670355, 217.79739614406313, 1.046399960215581, 221.68890749173744, -9.694365473793994, 455.52635651965454, 0.9933337036116511, 0.8778360544091643, 0.8431674486996036, 0.872406782634067, 0.8374272027313955, 0.8807320929348166, 1.0054934072933643, 545.1432778894127, 244710.6069933388, 36.59785363763839, 1096.5401991737872, 962.9259875780095, 81.06103363726439, 1.7759965219628515E9, 0.0, 2026-04-12 20:22:01.975
0.0, 0.0, 35.971404204824, -6.658341589016871, 81.88845011920282, -25.868944875341327, 135.88421885604282, -37.57784166185915, 145.6917621192929, 28.427834800875047, 219.0498359171138, 120.24406856540185, 10.874517439973602, 528.3941012948974, -82.28639784612065, 449.4823959435395, 18.097311962846106, 0.9642249694666792, 0.8943124128977188, 0.8374575829030846, 0.8968125139262151, 0.9474493958148155, 0.8816224119774331, 0.9206704092703664, 514.1667756463085, 249286.38496365128, 36.60407534215738, 975.013871450789, 954.395947109751, 86.59385313433773, 1.7759965219668963E9, 0.0, 2026-04-12 20:22:01.975
0.0, 0.0, 41.742509293820355, -11.157347044859193, 89.65968280878477, -15.916412575055332, 120.11242309892975, 55.91202006750643, 55.32189874013656, 151.33067021596977, 26.383886978627302, 268.73420292824017, 14.635812431588235, 517.6886194798265, 63.95647670831771, 132.8406851413854, 251.70126058379407, 0.9153697464376768, 0.9368868301394219, 0.8291467148809374, 0.9963559224957704, 0.8474876254526788, 0.8828057496472981, 1.0677328371362602, 458.98001966745136, 252066.2396565898, 36.599526342122864, 900.9635608673101, 1041.6206866380387, 82.88665601433965, 1.7759965219706368E9, 0.0, 2026-04-12 20:22:01.975
0.0, 0.0, 44.22696922122623, -17.06085857888756, 96.35583503385543, 27.32859093997419, 51.052210924599734, 117.61929749238399, -0.30011639438613713, 202.60505456349222, 46.01274004096455, 157.35677969685568, 162.39478784179659, -8.372696424853046, 285.6500128712868, -138.44587400104245, 291.1419290932093, 0.8083297757342907, 0.8774500553789294, 0.9870436053615269, 0.8459973657423564, 0.8189372792529501, 0.8710054930296303, 0.9934226872266175, 523.7727086286363, 228172.00905261925, 36.59004730212023, 1003.4118371261542, 951.8229266268062, 97.02090880739127, 1.7759965219746468E9, 0.0, 2026-04-12 20:22:01.975
0.0, 0.0, 44.989749297986954, -8.889564902364654, 66.13032194807292, 66.55578000440644, -16.111198325505455, 154.9432097468646, 9.248764449330821, 118.9012114840468, 176.84842747726088, 28.676275320778743, 503.8389920500076, 26.924374736923184, 135.12567340595893, 612.482983326443, -40.93017464819985, 0.9482348115396294, 0.901405805048369, 0.998118956534313, 0.8196430495505278, 0.8854194290947551, 0.9914263725954701, 0.9310146784536975, 546.9329742923733, 240216.8633815672, 36.60406880028672, 1080.439197837671, 1006.4170533635837, 93.38214543278335, 1.7759965219786518E9, 0.0, 2026-04-12 20:22:02.007
0.0, 0.0, 47.412885116453054, -1.634502173636026, 38.59043185513117, 105.49323186419241, -21.398553295656356, 140.51166620161996, 90.13765489228574, -54.67573112153951, 243.5997134506545, 57.60633907842708, 180.53285013824848, 335.8238680237383, -103.67425023684373, 511.6240378052031, 201.37768462280656, 0.9105483173767567, 0.8276053894299212, 0.9264768314314854, 0.9189634211701975, 0.8729585638787534, 0.9812517430318543, 1.099476501215753, 494.4392222731336, 270503.88057123416, 36.603193508008026, 943.5263698806369, 1056.6149718880945, 91.16717826732781, 1.7759965219821749E9, 0.0, 2026-04-12 20:22:02.008
0.0, 0.0, 47.02940807319141, 12.493590581811318, 11.247457483745912, 127.69139476328138, -5.042156274301178, 54.457477702873085, 186.64976056756194, -19.056232268836425, 123.29455682691415, 273.0733980075448, -44.789703491800736, 180.76944054687362, 265.4595917079698, -201.50216015025723, 345.00979443002075, 0.8592733611941082, 0.8899805267013933, 0.819681212317127, 0.8899868099788509, 0.8683180155942436, 0.9337183507971095, 0.9327523666657991, 519.421687606716, 272762.4350321257, 36.591211718602246, 989.3458056217493, 1093.9930474080656, 96.96079188292747, 1.7759965219871857E9, 0.0, 2026-04-12 20:22:02.008
0.0, 0.0, 47.40568383271108, 29.039248726837506, -0.39309526543880935, 116.8865831917165, 59.91559681577214, -11.65965121891199, 155.4641300443538, 203.45827600874682, -26.01961656875973, 295.2292862581042, 130.99073302216965, -19.13008607423251, 260.7768950339171, 173.42246124795733, 18.713251472557943, 0.9455240500801111, 0.8539856085571432, 0.9702062011399152, 0.9129049699146928, 0.8391229311490418, 0.8099118997060448, 1.0323430744829922, 522.885078332355, 248112.01217200942, 36.60867314276444, 1025.515281390151, 1055.621900286672, 96.42319066510973, 1.7759965219911788E9, 0.0, 2026-04-12 20:22:02.008
0.0, 0.0, 39.721897754367575, 43.18364938521145, -8.97985043986207, 76.72684574989057, 112.90593387583345, -25.025545871741727, 83.2399327787881, 165.55727838348838, -23.49667231914752, 55.13808197595147, 265.72195549078515, 47.48265764839947, -87.28110979867722, 424.3460389408432, 158.42662590052464, 0.9337723032580455, 0.9858516943751131, 0.8520424616244602, 0.8006996054512749, 0.8104283053905068, 0.9081069095784468, 0.920242438378685, 529.3197480059627, 239407.93101972173, 36.59926262378691, 1000.59384132611, 1031.6396325868343, 85.43986793877816, 1.775996521995186E9, 0.0, 2026-04-12 20:22:02.008
0.0, 0.0, 34.33621954966442, 57.901613111548684, -1.5008057315502938, 38.45506171348539, 153.39574100936522, 47.16706060000466, 23.59306219376871, 201.24078609016848, 158.7773189344348, -117.3526789974373, 127.12453065093938, 233.12577719517802, 104.56522062683041, 102.4514812797349, 426.03765143954394, 0.8620847768493305, 0.8589540413244395, 0.898802867019819, 0.8273599470614482, 0.8911632464066996, 0.8577018801858107, 1.0029125402650565, 548.5261643206859, 242733.666452925, 36.60415947997181, 939.5964828602662, 1021.2818936139132, 95.65717876327183, 1.775996521999179E9, 0.0, 2026-04-12 20:22:02.008
0.0, 0.0, 29.216423259597534, 68.72300422682193, 5.743068795933048, -9.362779520311747, 138.13495345491316, 138.4924236013908, -27.224107907562285, 62.02814533629677, 304.34897564923403, 109.71360886629719, -80.32797451111043, 155.7447432330854, 564.6242835924184, 115.67490882919483, 13.516962270046605, 0.8278409235612846, 0.8851092280665215, 0.87163818857218, 0.9814665903410597, 0.8815447178589332, 0.8947279145958038, 0.9496093021670311, 455.35995473004755, 275373.2119585382, 36.60080166423485, 1042.1048523081076, 1040.8208161735445, 96.43845180577456, 1.7759965220031943E9, 0.0, 2026-04-12 20:22:02.008
0.0, 0.0, 22.070805918141843, 76.55555455306697, 34.027809563975524, -16.533305394465373, 69.08478999513912, 146.28337480278282, 64.38369971383763, -18.251879076872868, 119.53974180970734, 340.80074253515613, 90.1494726254513, -57.64889087545629, 357.5399190224906, 206.66202130263224, 143.1101890493796, 0.8669132171668429, 0.9800960983950796, 0.9634961458894195, 0.8065079790777534, 0.981992034055514, 0.9023552367826674, 1.0574114874670468, 472.58843218531797, 248643.11697667715, 36.60180544056689, 1028.1224474764995, 946.6213919679025, 93.47082044241421, 1.775996522007036E9, 0.0, 2026-04-12 20:22:02.008
0.0, 0.0, 15.341173421522472, 74.53246932869696, 60.63286741312958, -11.716270344037284, 24.126747921054907, 148.7743245497872, 161.69243742376375, 24.53530471247099, -18.537020353161594, 356.655194408267, 333.04790796759085, 88.76404522377373, -73.87731849515205, 145.67118533637642, 465.6142977383148, 0.9884935263093763, 0.8526228329824105, 0.8290067509271725, 0.947319371536098, 0.8315817622806841, 0.981753188016583, 0.9994666628900093, 519.825125105422, 237813.97379434912, 36.602742161499634, 950.4328167717446, 1075.1042219525732, 90.55060166528072, 1.7759965220108545E9, 0.0, 2026-04-12 20:22:02.042
0.0, 0.0, 9.352475574809757, 60.38862963532193, 76.39119858301683, 21.633148196484978, -42.982548872895634, 66.33585624216009, 194.81856640939068, 151.17429747366933, 25.0412542988678, -61.25929966804583, 186.20385458531405, 244.65947103933615, 170.8834734859355, 86.84772463276411, 47.80742457932459, 0.8448248697087768, 0.9163958453982041, 0.9376260622934466, 0.9825403160750731, 0.8617031320444214, 0.9158619002199361, 1.0849340824864713, 455.9915842190948, 271412.3418668951, 36.59598459974833, 906.8381684886773, 984.5716630061867, 99.4378291277167, 1.7759965220148375E9, 0.0, 2026-04-12 20:22:02.042
0.0, 0.0, 2.2337306541554582, 48.32254810494456, 89.08760592948693, 64.49034206150785, -3.4774564203560487, 3.1089638109130533, 110.42832100207642, 166.49823826104534, 151.0852723294824, -19.384847119593815, -130.2100438780167, 135.50833959387808, 303.2456011611432, 221.34620934415886, 107.13494447813434, 0.9971575025274101, 0.8282471513053984, 0.9393277254794544, 0.9614542497873683, 0.8306017261439113, 0.8750283153051593, 1.0601015991220657, 474.713114787584, 238803.72864345118, 36.60726547559902, 1084.8959731307925, 1023.0932277530416, 91.51476302294627, 1.775996522018412E9, 0.0, 2026-04-12 20:22:02.042
0.0, 0.0, -3.2840214492383986, 36.89816298412434, 96.88892543125549, 92.81289369318678, 38.54618577445197, -49.32882255159525, -9.027980910319954, 126.35754068084074, 177.65661353235066, 157.9754166801933, 55.74943709067898, -5.472963011519539, 11.096573719208578, 341.2583167695012, 974.0376049213326, 0.9924150812797617, 0.999489356871882, 0.9126249894978028, 0.9715020473789949, 0.9100836707570173, 0.9509503619005496, 0.9886192626144982, 508.6062656298347, 264167.2797692546, 36.60038510310592, 1052.2857514372151, 1097.025551498615, 93.55976385610315, 1.7759965220224483E9, 0.0, 2026-04-12 20:22:02.042
0.0, 0.0, -8.231571776067295, 19.267757512869313, 77.34091779710866, 125.3305037628774, 92.58502348504382, 23.064258176913754, 4.171233332750731, 22.23608216058865, 125.17657847949354, 213.36574491133248, 201.91573678703548, 140.08594422684686, 54.73508322526256, -109.07940882742986, 124.80309838485203, 0.9248750102605731, 0.8232425541440933, 0.9424049743003208, 0.8324501680036588, 0.9885765627349313, 0.9039429712777401, 0.9723898635166393, 508.37154302344334, 263572.7649200024, 36.60072849386031, 1083.6100717879467, 1035.8799676870667, 92.13866796206987, 1.775996522026446E9, 0.0, 2026-04-12 20:22:02.042
0.0, 0.0, -6.031156439912348, 8.942268092304985, 53.96312930697127, 112.22748840387048, 117.84486058703408, 124.86474570894322, 80.3575640424769, -2.9550681647608315, 30.36485154411207, 51.600219944008614, 200.33208245047885, 411.60792893750886, 187.0741973058398, 166.15865289286123, -76.48889345631864, 0.9111352209788229, 0.8193343360931814, 0.93172047569923, 0.891753647858256, 0.953205911975806, 0.915438849137428, 0.9696566185346538, 544.050157081867, 272216.53587560897, 36.608064437316784, 993.9840115217387, 1012.9922754335295, 83.27230126448, 1.7759965220308385E9, 0.0, 2026-04-12 20:22:02.042
0.0, 0.0, -6.861786159300362, -5.311730011677966, 26.76081348296136, 72.29511479051037, 123.63834042943557, 179.97943651422565, 296.2687670829251, 76.05027871313848, 39.16027379433879, -30.455466448800223, 63.507853957022995, 97.80400112321752, 257.63958339593, 341.5832715297582, 421.81624415725645, 0.9332258876627418, 0.9130447437439825, 0.9824138693868826, 0.9145676450377237, 0.9715612658974392, 0.9387543582137764, 1.0490850029036005, 480.51728627113755, 234278.16699670596, 36.604354720909704, 1098.4223880985035, 971.1470612672892, 85.41284663656212, 1.7759965220349596E9, 0.0, 2026-04-12 20:22:02.042
0.0, 0.0, -4.328064876700299, -16.25319504498834, 6.3366121552174945, 37.22281198864043, 86.92569814919744, 139.60754218932135, 397.54717682235616, 239.48177463954048, 146.1040352045452, 93.90985719954509, 4.6942295993635526, -2.648343708065056, -64.58711530153593, 10.370430388654768, 119.70637003119435, 0.8973029930198977, 0.9464505662669916, 0.8289859545095111, 0.8381063221276852, 0.942981511463398, 0.8664752112803944, 1.0420753030166081, 506.4918815250984, 237621.22374475587, 36.6057020699456, 1039.4985289804224, 920.1116237866553, 90.81400759422397, 1.7759965220388536E9, 0.0, 2026-04-12 20:22:02.042
0.0, 0.0, -2.4006209837187527, -8.943537297873753, -7.614914110556505, -2.4073522516037187, 22.548702146169248, 79.40070575045958, 132.72815798415525, 210.8321117785806, 206.42205510250162, 281.17658138353397, 211.68297048026994, 325.6963973967413, 107.8114458886099, 55.15842205348224, -98.62363406068062, 0.8072236686437841, 0.814933550273545, 0.9618038839060862, 0.991862224908529, 0.9644976067884, 0.9501217515980694, 1.0486676494825795, 451.80779653472854, 260802.34367176748, 36.597551921395386, 1090.7961121227845, 1065.3981339221032, 81.35774122072917, 1.7759965220430083E9, 0.0, 2026-04-12 20:22:02.075
0.0, 0.0, 1.6382084920412403, -1.975423529698638, -7.06661454153096, -35.16073478723453, -28.970951371670097, -19.86264037847205, 35.75365212127787, 69.57225116908344, 132.81402564609078, 197.42206851418095, 233.5711080138339, 525.9141420858816, 364.86067788130026, 695.7577815783466, 386.3070030051622, 0.9790529867984054, 0.8378460177178505, 0.9862071899601915, 0.9927466558672225, 0.966156763783303, 0.8672057172414961, 0.9756409948715887, 524.8406240182778, 260308.63167767992, 36.6073267126609, 1041.7938572477815, 961.4042567822864, 92.52541481923423, 1.77599652204703E9, 0.0, 2026-04-12 20:22:02.075
0.0, 0.0, 7.285404477342471, 2.078034018437066, -9.698229399058967, -23.097005897858324, -18.513380165562936, -52.42044268041283, -68.3049177683057, -62.511372037091746, -38.96370486745755, 48.60291985565364, 50.51356977765161, 54.21236061492958, 115.75066693942509, 270.48941021745367, 168.49082257342263, 0.8861571747613558, 0.838029360462655, 0.8108127031426667, 0.928230800036575, 0.954085893911225, 0.8435615925733704, 0.9036943642402598, 538.7430270482728, 261062.79282943832, 36.60007490423549, 1081.4829876346034, 974.6153656811596, 93.0215134632846, 1.7759965220510263E9, 0.0, 2026-04-12 20:22:02.075
0.0, 0.0, 14.303058359542174, 17.164257699224784, 16.887949828207535, 23.823903950234726, 9.241175936902948, 11.869040284614577, 31.182238564137336, -9.666081530195981, -49.72005738909371, -16.564227949060324, -5.911316901535898, -70.77662371632181, 25.04789891853926, 11.671344441941272, -173.55173302679134, 0.9816947569332811, 0.8834498682554635, 0.9882607609434205, 0.983483085343693, 0.8085965261763721, 0.9382273903101307, 1.004372147489621, 459.1241597193932, 275258.2794127677, 36.595676319274766, 965.1778974407742, 966.6079253620994, 85.38124586521167, 1.7759965220552247E9, 0.0, 2026-04-12 20:22:02.075
0.0, 0.0, 21.516582160598286, 33.98893486034119, 46.90519317666676, 66.77972483843524, 84.1290998210825, 104.7416063407366, 121.6664266183236, 149.25473245787006, 341.5618968097997, 151.97312437701163, 399.62512846324785, 269.52866076400824, 323.68052704279603, 289.41701233778576, 283.19123241753147, 0.9805044708254776, 0.8288540197380415, 0.9753973665832879, 0.8585062396755049, 0.89877705215294, 0.9463083679688741, 0.9855970886277301, 491.33942584870056, 246522.86733450805, 36.60280090460975, 965.5759963422025, 1019.555648602716, 89.64903113078513, 1.775996522058766E9, 0.0, 2026-04-12 20:22:02.075
0.0, 0.0, 28.35142862555577, 50.209336938058684, 71.19146561709749, 93.62995711907881, 152.244340766221, 159.3616734680915, 184.29351646232968, 164.70611233144098, 562.4058392268231, 219.5313124777877, 483.8914770541486, 354.6384763908243, 300.18946770904614, 344.5872853572953, 193.996120645222, 0.8971442661463046, 0.9682925399377639, 0.8609298750127464, 0.8881498699040267, 0.9096822591947867, 0.9404250646992952, 0.9708442122956656, 523.0395593821867, 260478.4236632603, 36.59388703391684, 1041.7708504186132, 928.2817635908336, 94.17507577177558, 1.775996522062781E9, 0.0, 2026-04-12 20:22:02.075
0.0, 0.0, 33.92247994029889, 62.750515655565565, 101.00942239250703, 109.30700814746126, 163.48793772105017, 179.1012512752638, 180.59153026664734, 143.20295276665192, 224.52584630311878, 84.44710996875737, 139.70679161666285, -50.19438958025958, -126.80951570859804, 82.6595098229663, -236.6312923452357, 0.8402150990426389, 0.871020949139407, 0.9489248012417589, 0.9001612931979887, 0.9219395403883192, 0.8358194647640119, 1.0997555215178114, 495.97756480716055, 265606.61614936846, 36.59971153136125, 1080.3370831189643, 1026.5091396404514, 90.48378725488985, 1.7759965220661511E9, 0.0, 2026-04-12 20:22:02.075
0.0, 0.0, 40.768229546927515, 69.85918792566494, 89.31516104217935, 113.47434263776381, 97.46768506360647, 84.39672521367486, 55.97455050242708, 43.60066619802204, -16.986037228868554, -70.06140909232835, -97.87012973136743, 71.17333419690704, 138.8429131307692, 159.57788560873135, 198.9835858737384, 0.8117441952936453, 0.8601620252681628, 0.9975930233735643, 0.9545228701834766, 0.955522486487446, 0.82084030074496, 0.9347206453618668, 469.2071403284079, 253955.98094852976, 36.60349386223365, 917.1872766978945, 1059.6286707043562, 83.86102169028499, 1.7759965220704992E9, 0.0, 2026-04-12 20:22:02.075
0.0, 0.0, 42.24224018204097, 68.02492624179558, 83.60591051502819, 77.2816129652416, 48.10635980522926, -6.256721522884874, -63.30489895140832, -78.2054447176032, -29.457377275866264, 73.93764575122108, 158.69660560743898, 185.63420774596486, 573.0456145127687, 454.7694291178415, 240.04382126610042, 0.9356386021189022, 0.8817306846125552, 0.999377402304987, 0.8139585084093809, 0.931293531796043, 0.9607967815816548, 0.9085815842431696, 481.16939734735786, 247075.0194376598, 36.605456407861986, 964.7042946483807, 996.1977712445461, 94.94920302737754, 1.775996522074456E9, 0.0, 2026-04-12 20:22:02.075
0.0, 0.0, 46.223364425076454, 69.24408596820027, 66.99377128726242, 36.39450096205168, -11.198935985850866, -39.640946750650784, -20.11031549645712, 51.60386934829617, 187.07460593786675, 233.39177161609297, 270.4897332523392, 194.47017531069383, 135.6877864656469, 57.962539066417776, -216.4069281886135, 0.8814067060968063, 0.921681641509566, 0.9446693407949337, 0.8813215607591672, 0.9656881713803759, 0.963759379025707, 0.9949274271795192, 479.41615841587407, 276315.881600232, 36.60392993359447, 1059.776641591313, 911.7007336122185, 89.84299033057425, 1.77599652207776E9, 0.0, 2026-04-12 20:22:02.109
0.0, 0.0, 47.076668617334676, 56.70630569435622, 38.39802456823923, 9.94748265210896, -24.528395878424604, 24.008992981225788, 92.49600468840711, 189.6860089355127, 175.78553689384364, 157.74501507907274, 93.39895730060431, -66.65912743021431, 53.8254664514365, 57.65424576156147, 504.7854095160377, 0.9432917577006287, 0.8647177408273871, 0.9109685149952859, 0.9934235732426641, 0.8797476048517795, 0.8353446189588029, 1.0061103358513779, 470.4382679708057, 253208.6372443374, 36.598674588536, 916.7938403980235, 930.5621860758471, 86.7765882236953, 1.7759965220821617E9, 0.0, 2026-04-12 20:22:02.109
0.0, 0.0, 47.122517846778074, 44.48840464289901, 12.222435677150383, -28.454133843560257, -0.15128032250331103, 186.8332786658246, 156.97660144832304, 174.0019067074121, 128.0420169658724, 45.03212836272826, -32.83836433339292, 95.68631388164566, 193.37505763487883, 410.3306879652839, 521.479363382575, 0.9363784787587693, 0.9057248127032563, 0.971583796521632, 0.8313216627304282, 0.8247967262168678, 0.9378041783076584, 1.0612697873006514, 459.7508996698218, 234422.0362612392, 36.597603361682474, 905.4419484148614, 1032.6694233728126, 86.91558883916704, 1.7759965220871809E9, 0.0, 2026-04-12 20:22:02.109
0.0, 0.0, 43.756475641131495, 31.07036594271279, -14.398227610357466, -11.363607991692376, 59.878009734325026, 185.79761482140066, 182.95436702714287, 179.9069491118003, -77.02418899779647, -80.58791776265534, 132.0841094137657, 302.4571457959105, 252.49050511099313, 126.60765945839742, -31.73026932504368, 0.9787784662819653, 0.8617729203558756, 0.9305661625164426, 0.8049758112072163, 0.8908783888220124, 0.886901693875113, 1.015497780094009, 486.8020630176402, 248348.71057915947, 36.60068350465271, 908.3673873975034, 1087.2593119831176, 90.25881088125428, 1.775996522091169E9, 0.0, 2026-04-12 20:22:02.109
0.0, 0.0, 40.53151975590805, 15.272858117919888, -12.18101379129849, 15.444695324654141, 107.17913452105552, 146.62758388197796, 81.95254326089585, -70.55256656553928, 15.416886414375185, 175.8479653806806, 226.43970287539776, 237.27678031263167, 23.32575247195399, -163.83638397042012, 158.85918484155587, 0.9865140481592548, 0.962313834218462, 0.9206443771165588, 0.9802672642310183, 0.9446942575795451, 0.8938650783184798, 1.0650774689032931, 537.4904474993658, 250600.20755813626, 36.60211490161244, 1052.1604566146436, 932.378210175114, 80.44749449128386, 1.7759965220951471E9, 0.0, 2026-04-12 20:22:02.109
0.0, 0.0, 35.50865415721903, 1.284337191538409, -15.275481595105362, 66.53292085274686, 137.42931015393265, 99.60828740938591, 6.355362438729614, -53.437568402402576, 149.05843866243416, 462.78489865060055, 129.53694493984483, -65.71904154274893, 8.865991304717397, 333.019413150214, 247.81513924992157, 0.9873533633204997, 0.9174504821975665, 0.9829117079006385, 0.8673591195680895, 0.8098532253155355, 0.9607231495762091, 1.0335361662384708, 508.57218096468415, 241932.05427160652, 36.59261631785669, 954.3274572128237, 1000.5907476114173, 99.55530039654944, 1.7759965220991933E9, 0.0, 2026-04-12 20:22:02.109
0.0, 0.0, 29.2311412940946, -12.815854197283066, 5.335158335996319, 108.19647385402175, 126.46411369914412, 24.479654481597557, -22.658855278301232, 116.07183253484612, 279.22768440430656, 218.59189862880115, -147.23045859951776, 60.95831330555242, 257.95272412299454, 225.78446326767613, -58.633603327588276, 0.804290179979554, 0.9099450716753051, 0.835239595872894, 0.9568739427042113, 0.8886275612831404, 0.9708760933662425, 1.0306793688902818, 464.2269442086698, 263279.0860752944, 36.60239588834743, 993.9042401780844, 902.7449665561384, 96.05154306498312, 1.7759965221033027E9, 0.0, 2026-04-12 20:22:02.109
0.0, 0.0, 22.06581453322689, -14.369834256099516, 34.49902334129183, 134.42346802989758, 73.08228960971513, -48.64398008097653, 64.27492552713124, 183.3315537935287, 126.6100438968581, -57.11167453987639, 103.85648549480989, 228.33272948744877, 201.30293929398917, -17.888096844616143, 83.63848763545643, 0.8441170589496317, 0.8254016431072376, 0.8705305352024225, 0.9215867356741104, 0.9346224148827894, 0.9128310862571946, 1.0871275193008396, 478.76800356704706, 241592.0966942779, 36.59810448460496, 909.8428255272878, 1022.5602047927265, 84.87705106764545, 1.7759965221072943E9, 0.0, 2026-04-12 20:22:02.109
0.0, 0.0, 14.996431383305325, -10.630963089847704, 58.9604751996331, 105.70466741142485, -2.1868634254597694, -7.06434860713496, 165.84094313969447, 187.37288678457446, -19.5390086475134, 66.0604687546014, 360.00527997022584, 170.7531595851109, 31.9041957265039, 323.4166956406534, 352.40479583047636, 0.9776043616144531, 0.962124202240109, 0.9109540072217052, 0.9645682716478096, 0.9289389782008438, 0.8956930831178074, 1.0561890318398697, 533.3881524546669, 237394.27802976983, 36.60643661789899, 1067.4565723859998, 913.5102794018516, 80.99195298209237, 1.7759965221113353E9, 0.0, 2026-04-12 20:22:02.141
0.0, 0.0, 8.559148426500386, -4.60996958554113, 75.61911486722897, 79.53058928915837, -47.26811671271827, 76.38915873605724, 200.75603973608673, -0.33651412295058947, 2.431860801696075, 197.491569383912, 153.30687227356486, -223.637672200093, 187.04138348913864, 656.297712056328, -70.75988351739451, 0.9039217206109763, 0.946746433376506, 0.8065979100979177, 0.8537794222725597, 0.8592608209295985, 0.9149430045598775, 1.0844256011953854, 536.8598707193242, 253145.7698356865, 36.60513557795793, 1035.7788689824833, 949.6157422282786, 94.27217280637569, 1.7759965221138315E9, 0.0, 2026-04-12 20:22:02.141
0.0, 0.0, 0.8839915629274131, 10.769089830365296, 86.0876115399746, 35.398910973303046, 0.8527083492879513, 132.39612697946083, 120.31963844809593, -57.70301847868032, 135.01977925724148, 165.76671916160046, 52.40956931377663, 224.56963802291853, 358.6562509937853, -23.54447281579297, 116.32896776258706, 0.9288340900755659, 0.921092044696907, 0.9325841967001073, 0.8834846245689886, 0.8786937081316778, 0.8218213023776372, 0.9832166529201064, 488.41183619423583, 265150.30531905504, 36.592747777714365, 936.7020665953036, 904.6923012289824, 89.48139079515126, 1.7759965221189325E9, 0.0, 2026-04-12 20:22:02.141
0.0, 0.0, -2.580317345878818, 22.711925124806065, 99.97578241157098, 2.858026376821833, 39.00579268696045, 181.9785235910062, 30.790853517137002, 57.78019624928218, 181.23097382890114, -0.6565773214550461, 17.152786118549372, 636.4935010384529, 47.712375527417564, -39.634258670138195, 257.25751325848483, 0.889529959973679, 0.8953030407422436, 0.9908922171345093, 0.991963853000798, 0.9273934613787912, 0.9737746106407325, 0.9913562788537758, 501.4430899522387, 273646.20998012397, 36.60566578018469, 1064.813786433959, 1043.4996310023878, 99.36543014761024, 1.7759965221228912E9, 0.0, 2026-04-12 20:22:02.141
0.0, 0.0, -5.227482092746033, 40.34631026110046, 80.00257087762132, -12.307018769372078, 88.81387136173747, 128.0300154434122, -13.578283481556326, 199.12902013949466, 120.83679474001754, 15.432602746682392, 305.3522567082215, 103.50764571674605, 29.131545753671773, 316.47445468394153, 29.982028823523024, 0.9966050878623401, 0.9947042740406954, 0.8186213395759431, 0.9051076022200316, 0.8480259325160546, 0.9282152484487077, 1.0396313607988188, 499.7841105465131, 259139.86900254682, 36.60953471583429, 1088.516180760806, 936.9634913687827, 96.57700715264103, 1.7759965221270308E9, 0.0, 2026-04-12 20:22:02.141
0.0, 0.0, -7.660327137032571, 53.02522477666315, 52.91076630523392, -1.146818012523795, 121.11033794010469, 14.881967291230424, 36.469971331712486, 210.0897468792357, -4.071627412465091, 155.16991818215553, 172.71068173372998, -122.08637406320074, 206.25048691534465, 124.5898706673963, -98.36002646048286, 0.9613657117887792, 0.9898061357063633, 0.8719252430775003, 0.8870829457151744, 0.848953521913991, 0.9807618043705303, 1.015095578011578, 487.8126091813716, 233457.7377838203, 36.60302607123834, 982.874017826963, 1036.945794962719, 92.54508787031689, 1.775996522131056E9, 0.0, 2026-04-12 20:22:02.141
0.0, 0.0, -5.351957208498341, 60.847266256764456, 25.699868999826066, 24.75771911699867, 150.4550242092182, -42.16272770594959, 140.38466006458452, 104.10434869868774, -31.53516288748216, 211.51417541323246, 17.529368125616372, 152.68993874069656, 493.5983713231984, 73.54401610286803, 251.02558368852456, 0.990618351592541, 0.8752280893064627, 0.8028581018875843, 0.9860337238346516, 0.8983783233284847, 0.8862541129983211, 1.0038382186610584, 516.042568608275, 274968.33251706575, 36.59659843195096, 1017.5786245685874, 1012.2201776168564, 85.89300018400775, 1.7759965221350052E9, 0.0, 2026-04-12 20:22:02.141
0.0, 0.0, -7.293228771583735, 72.51551738994664, -0.834244821851641, 60.536207006101534, 93.84571063344896, -9.76235963026788, 182.3323812942932, -19.4359941539319, 177.31125009700924, 139.16513935454248, 45.73623500158436, 251.35042134894172, -159.23271131662187, 249.50516936637618, 280.2219371725898, 0.8001177388682642, 0.8769790958785033, 0.9169501692632637, 0.9066393075515716, 0.864385022123808, 0.9214698124611377, 0.9162867325158032, 504.7636770043332, 271370.262300727, 36.59205503983444, 1021.1716225157969, 934.7273429541451, 80.35869151039412, 1.7759965221390753E9, 0.0, 2026-04-12 20:22:02.141
0.0, 0.0, -3.368402217222741, 67.75795106773904, -20.165020983563352, 101.6391517197747, 35.41739416205368, 62.26888128286179, 118.15660768887369, -25.60865697319089, 229.71056129741578, 21.715619727622368, 546.0771656053723, 103.29474666430909, 243.371054393612, 274.27866246185016, -123.22550098971521, 0.9189403182812405, 0.8610736333942887, 0.803088276484306, 0.9503426005897727, 0.8502827652313882, 0.9243172891939077, 0.986664993616477, 535.814063550429, 237362.69831342477, 36.602474170074785, 979.9051744985377, 923.8054879099866, 86.4509293372837, 1.775996522143004E9, 0.0, 2026-04-12 20:22:02.174
0.0, 0.0, 3.137608574183094, 62.53970317157717, -12.55354923386269, 118.96522793870146, 5.886033229646024, 148.33918771085376, 13.872039444222324, 110.91562871051038, 134.87518120424522, 24.64638477617656, 586.5217756368759, 65.50328070416705, 259.6507876694128, -31.257796923773043, 706.711667394813, 0.8767827145335616, 0.8291353744589142, 0.8058164364348188, 0.8977405809246377, 0.9411514254855594, 0.9315705853678139, 1.0179845375665888, 461.64585333521654, 254399.91527936797, 36.60306631739637, 942.8220137047227, 942.6198762886411, 89.35884314392196, 1.775996522146986E9, 0.0, 2026-04-12 20:22:02.174
0.0, 0.0, 8.415678975873508, 54.26494587801914, -9.7992064937999, 109.35928728698798, -37.077077153052244, 138.20419361539504, -71.20969121769951, 162.94598656344715, -69.50979648508377, 262.62001237394156, -16.755190173672077, 191.3029360506586, 82.3342676864333, 168.58211137276766, 197.62153792503636, 0.8782716157960184, 0.9434731305980396, 0.8843560739592541, 0.970379431844283, 0.9034943333235727, 0.8894035348479898, 1.0717329096671162, 471.50481217527823, 257147.01287971874, 36.60045708414095, 1080.4574830915858, 969.4735243990126, 88.47887594856275, 1.775996522151137E9, 0.0, 2026-04-12 20:22:02.174
0.0, 0.0, 13.922672684760407, 41.05111754075034, 22.986309046595494, 73.81902184254733, 21.268425679551846, 116.6580743812164, 7.533801969319427, 180.36789368789402, 4.438449075382252, 184.35044729950923, -21.832899220854443, 371.2305833269377, -55.36021655843808, 217.31881813382452, 66.8018542417479, 0.8735374616732139, 0.8059251972116509, 0.8977818995330066, 0.872263276343383, 0.8376710109588351, 0.827313777045309, 0.9907377924660521, 450.62741626180406, 257467.31571351917, 36.59178004861115, 924.6591285444416, 1074.0233493837004, 90.77245443678831, 1.7759965221551032E9, 0.0, 2026-04-12 20:22:02.174
0.0, 0.0, 21.36825198721899, 26.15731839745076, 48.33505840132663, 34.80654322893126, 85.19456552434885, 49.80368972089896, 246.47616200668273, 18.564321567288346, 316.97707416447577, 18.963334329831383, 243.27175620327583, 43.775155427827656, 257.68894051769405, 63.505633159681224, 273.6851716354202, 0.9753337630956783, 0.9791389287749849, 0.8193840369772561, 0.8349886118944739, 0.8545044354988263, 0.9883626196751291, 1.0188293280612646, 468.8957323755462, 246415.86697998762, 36.59326583613179, 988.6603745208444, 1005.2944174102256, 93.91707840482385, 1.775996522158599E9, 0.0, 2026-04-12 20:22:02.174
0.0, 0.0, 27.720969225693963, 10.581033794055937, 78.88988386360789, -9.732827067020487, 130.32061005670997, -2.0334626109633973, 417.3341861253211, -49.98471443707004, 435.9565041568112, -75.02653273437994, 269.10802772288895, 6.077149676949119, 339.4076009900831, 82.81128759512711, 188.5603498511067, 0.8109526437171154, 0.8800407869102741, 0.992631482825041, 0.9377997941280397, 0.9231746769619208, 0.8069510570660445, 1.0117707620054146, 462.46264267838035, 250106.22486368526, 36.59076779909383, 1057.0866927074237, 1078.074126492306, 93.09333183812046, 1.775996522162146E9, 0.0, 2026-04-12 20:22:02.174
0.0, 0.0, 35.010297330564164, -4.753594847657901, 90.04761106412718, -37.78528213614257, 118.78297092583784, -12.576723200220428, 130.8995071151229, 38.24293950338911, 273.1291566293277, 123.92292906888555, 77.53291348597168, 204.22992847839464, -139.50792160373715, 383.55219443208534, -33.892019246908745, 0.9973148150364516, 0.8067661323538028, 0.8411746790314596, 0.9882501840893351, 0.9091467305763136, 0.9372330511127759, 1.0608839861717227, 537.3818657498865, 270880.83609074977, 36.607453222644786, 941.6418828370618, 1094.0956454470665, 96.55200259283646, 1.7759965221672983E9, 0.0, 2026-04-12 20:22:02.174
0.0, 0.0, 38.9816372122383, -11.537786927609268, 104.99144564348275, -3.515554996307003, 109.94302939651843, 50.307312901254974, 54.17791661883965, 194.74573237216404, -32.92030302335206, 340.8265328310078, -14.139947467810089, 225.12280452571724, 74.16845434383038, 243.62025823101231, 257.5274265995573, 0.9105515070219287, 0.8732647950914431, 0.8034594916279679, 0.9665093682892975, 0.8671437227440757, 0.9079808487717981, 1.0662095740407098, 520.1374616230867, 260241.66382272862, 36.606641594183536, 1033.9528076203662, 1078.1415838930482, 87.17981941530718, 1.7759965221713314E9, 0.0, 2026-04-12 20:22:02.174
0.0, 0.0, 46.94359535691868, -8.827086551235851, 90.37381667389933, 23.525350615833982, 47.99352324300175, 131.53047351764914, -56.322655869686855, 188.8008837142963, 1.2682925956104611, 136.60442387371756, 182.91175463053685, -58.14581374384528, 442.9893240116037, -163.06118671729803, 400.1356666410561, 0.8804102541414522, 0.9343354672669956, 0.894039298586586, 0.8544154526138268, 0.8522151130429146, 0.8173525019832125, 0.9075104971565113, 475.8947098439304, 257190.97256757552, 36.60566629088485, 965.5249453816962, 1086.652258710625, 91.43363091044455, 1.7759965221749797E9, 0.0, 2026-04-12 20:22:02.174
0.0, 0.0, 46.82962849340116, -5.482942214070903, 71.12559219281638, 64.96866397856516, -14.834248522315178, 145.36381608992025, -34.971593733654146, 109.83121977859201, 173.64511045963036, -39.28737945642732, 287.70358100244346, 37.93422213475188, 134.86492034784402, 476.54589180229004, -91.02822705183596, 0.8552144237052388, 0.8776907071871018, 0.8650777419278943, 0.8751444882205767, 0.9382989612530198, 0.8142591845020357, 0.910857751822751, 524.1913796396958, 273127.6813152202, 36.599395841795996, 999.5397273939622, 1055.478419668081, 95.38382676345847, 1.7759965221788394E9, 0.0, 2026-04-12 20:22:02.208
0.0, 0.0, 49.031071098491324, -1.247822416545496, 38.6495585689999, 106.01517036451963, -17.193414659752676, 148.53536828619565, 91.99307463434326, -48.516077967413025, 212.15970298547433, 28.970348597710213, 98.96737363443695, 380.61804962949, -13.6526412649348, 258.013826468576, 195.5362524941649, 0.9430306414230613, 0.8651449980875852, 0.8458240724938466, 0.8754007754302038, 0.8258277889361749, 0.9750911737208753, 0.9786386352095516, 494.55583770473856, 231801.49882335888, 36.60051936608482, 990.636094031126, 942.3003321444933, 87.37049813171866, 1.7759965221828332E9, 0.0, 2026-04-12 20:22:02.208
0.0, 0.0, 45.25076412983849, 14.617352473667555, 17.239753967085466, 106.24741270022032, -7.418048228919105, 51.150990942236675, 161.23880540510612, -51.597840507196594, 120.27597396299419, 435.0070938672334, -103.15968174784228, 191.8192568285983, 239.7831456959465, -206.16513011655695, 382.83596662459206, 0.8505565466233082, 0.9151243564223278, 0.8240262595963945, 0.8110650972614213, 0.8291586958288764, 0.8111667500536978, 0.9045876462989227, 519.1253609305819, 255485.69689487063, 36.60008280037437, 1055.1749014821035, 910.8736095437255, 92.13526976673646, 1.7759965221863549E9, 0.0, 2026-04-12 20:22:02.208
0.0, 0.0, 43.31765302469871, 29.01340895442907, -15.19623316524006, 97.22462850736204, 59.915753130282845, -2.5725895264647534, 171.4358393652272, 92.77004732490228, -10.058476670712452, 539.0388303488296, 131.6641040915458, 9.474437047209705, 363.44453890278123, 176.12267587092805, 16.024643122658034, 0.9821732186665214, 0.9928963952697581, 0.9158421017669277, 0.9362888278033267, 0.8858668451731903, 0.9171023708854392, 0.9107952932201567, 479.47881724527394, 274183.3653037044, 36.59677209653804, 1090.9711445635655, 1094.4356921471199, 83.51539579738794, 1.7759965221903112E9, 0.0, 2026-04-12 20:22:02.208
0.0, 0.0, 39.41695023107769, 42.96390586213386, -13.138785164621986, 85.26197681552453, 103.54824733184137, -15.83138003156543, 82.88156572778752, 185.20452979797767, 33.36326074988544, 88.51048969614965, 297.23389511805294, 135.85483054321867, -82.76598488808645, 230.1941113020569, 159.3148877798363, 0.9066706908201015, 0.869733733421785, 0.916275231221262, 0.8819716202324736, 0.9836262358738043, 0.9596622585016547, 0.925995137956474, 500.5852204901091, 257238.84137813264, 36.59040656994873, 1001.5484375518178, 1059.8051045893278, 84.15903609102511, 1.7759965221953475E9, 0.0, 2026-04-12 20:22:02.208
0.0, 0.0, 36.36118493918799, 62.141766594228436, -17.699553918678994, 36.64927576586119, 154.8861491559639, 33.27152848319194, -5.473391549844692, 340.59557913771266, 184.8591247301103, 18.558612927796062, 135.58277276170116, 733.9062422763909, 85.49775321691635, -12.352830829934817, 773.1314908656332, 0.905257255156522, 0.8367894318204432, 0.8482257513940721, 0.8687687925581257, 0.8235195943723042, 0.9327039498611848, 0.9979001528662508, 501.8333355385428, 230463.4701058234, 36.59896146617985, 1011.4550156885908, 1010.959365319742, 90.15232114459415, 1.775996522197836E9, 0.0, 2026-04-12 20:22:02.208
0.0, 0.0, 29.20814704523446, 72.19697999782571, 5.7520871773885744, -12.758091645780304, 127.05316117648742, 107.93748373379441, -57.74613030801524, 101.4647723924277, 270.14961537810274, 109.567592640187, -108.02616234711587, 181.6954523342369, 728.6561524697728, -42.79050991281963, 102.465839263119, 0.9998376095457194, 0.8523058648563584, 0.8810729425331701, 0.8933569271078782, 0.9962873737097145, 0.8578118158735398, 0.91565280171413, 467.62030656821514, 269011.2746385814, 36.598159078070324, 923.495750464201, 1070.1994569745439, 80.50514663421652, 1.775996522203065E9, 0.0, 2026-04-12 20:22:02.208
0.0, 0.0, 22.021470142555692, 73.91890279837259, 33.74801498988656, -25.68481318884095, 68.71688113521121, 182.25909875344254, 67.87441797717179, -87.38556462602028, 125.34210778987116, 245.86707776959696, 66.51153962222233, -4.598318384758983, 376.2407590911328, 280.8420150774972, 227.3264370263748, 0.9692785864224868, 0.905411315206979, 0.8845102632310388, 0.8163716341242445, 0.9360444256408994, 0.8577310611552589, 0.9462283795598535, 506.8956757842955, 266590.15262008563, 36.590438441509235, 1098.906550667227, 1075.7843260472175, 81.37012651471136, 1.77599652220706E9, 0.0, 2026-04-12 20:22:02.208
0.0, 0.0, 15.383554998309098, 66.30290002255437, 57.99547177030343, -12.920144607753535, 1.5938533615968922, 145.10036070819868, 157.66243399645617, -9.425370368710887, -45.50631326068455, 162.43294771842605, 255.5153028461532, 89.10459013899755, -3.0450765304838114, 133.88127373488257, 516.7007409572561, 0.9145308477245243, 0.8616862032289706, 0.9318525385368696, 0.8786703949010474, 0.9242212100755182, 0.9542252870651865, 1.0233824856743636, 525.7876302709662, 256202.63864727615, 36.60161779218595, 1099.4655938646933, 1009.8688745532755, 82.13709329555991, 1.7759965222112107E9, 0.0, 2026-04-12 20:22:02.242
0.0, 0.0, 7.7417397780569726, 62.01373248350672, 86.69256737181843, 22.53749692752979, -37.3800875375329, 65.60768839072655, 227.4837011574015, 141.89818719679582, 39.98122185947642, -55.26234164813232, 166.1077836237239, 420.65689083870467, 179.17278058989933, -21.141301881104567, -11.955970119900002, 0.8186388064032253, 0.9272606331078118, 0.8439251282380524, 0.925146728805713, 0.9085256582271152, 0.8249441117361933, 1.0456203791373297, 522.1232530686617, 262453.0593141658, 36.59094089407014, 1051.562215148956, 1027.5519689533965, 99.81956185231701, 1.775996522215196E9, 0.0, 2026-04-12 20:22:02.242
0.0, 0.0, 0.6787462975444427, 54.28942000683705, 89.14518819992617, 64.71589496016534, -12.610337417806932, -44.17952104152937, 122.99469475967649, 256.1527475658578, 139.2418204837737, -36.68875668030975, -57.74435032598009, 134.88322840652674, 290.29952347417446, 343.6753931592077, 56.28900691943939, 0.8237333966116595, 0.8144178418727149, 0.9473815189081037, 0.9068282129422355, 0.80054830567048, 0.920921707862124, 0.9513090547569474, 452.1412385103945, 263798.45934096514, 36.592073824275715, 1040.4158069632972, 967.1831180511231, 88.89518557220262, 1.775996522219236E9, 0.0, 2026-04-12 20:22:02.242
0.0, 0.0, -2.402949441611902, 36.0387177659561, 99.52831465510656, 93.7626628707921, 35.571884392619864, -33.189994492928236, 28.351647907261487, 148.37914079695233, 171.56511477741861, 188.84537814556353, 74.85956355194617, 38.91061412399341, 2.9098682963988836, 316.110188899884, 317.9809483089996, 0.9867966854128599, 0.8543113479128387, 0.972606094793513, 0.8644447581271456, 0.9240896000024384, 0.8972255055552213, 0.9539520530330649, 476.34784714300145, 272423.4248369961, 36.597612090483814, 955.1124408407594, 916.9148897354493, 80.04360566149795, 1.7759965222228253E9, 0.0, 2026-04-12 20:22:02.242
0.0, 0.0, -4.837498087026507, 20.29198340281898, 81.24646165980975, 125.65683197268848, 98.8834035844083, 37.59885025432395, -51.658197169589926, 37.76719406802748, 116.26702008385392, 296.17344742432624, 586.4405158859634, 144.9040010176333, -30.54541243678659, 8.099685648533438, 12.201278423572859, 0.9286358533312474, 0.8735608306160122, 0.8014878913656848, 0.9507959552456381, 0.8523886176736646, 0.8902520280271679, 0.9975575684657825, 514.5226789539074, 240632.8096162353, 36.60906966554926, 1090.4863977602365, 1023.2607897457668, 91.53183641391786, 1.7759965222268372E9, 0.0, 2026-04-12 20:22:02.242
0.0, 0.0, -5.874347765061547, 4.7605869780890515, 53.5291088891719, 109.52444086547283, 155.74259733029646, 112.80955760413366, 37.24768940842612, -44.15601707599629, -79.02776231772486, 85.00954478954353, 265.6021060309012, 253.36681557484337, 390.10845682021977, 161.4872364959572, -75.17468962174465, 0.940997689994968, 0.9803961856569904, 0.8898634134477861, 0.8096022638662825, 0.8377794544696535, 0.9866069904117133, 0.9608972822736841, 502.11850954534873, 244441.57243986058, 36.59492135857272, 981.2351029873901, 1078.545478404188, 84.64305949354029, 1.7759965222308707E9, 0.0, 2026-04-12 20:22:02.242
0.0, 0.0, -5.4989588141861425, -1.4785888678845183, 24.452959999836747, 73.6905036642052, 155.04117049650935, 188.1065929282562, 129.08348238738347, 79.80034588051198, -2.0144722385206677, 33.683158751364346, -37.940689230688776, 98.4896144749471, 246.0847475634916, 620.9271116784353, 370.976218977081, 0.8166161055411374, 0.8819943976496148, 0.9300692421349853, 0.9597975164732414, 0.9723905117900072, 0.9885438419918945, 0.9040715786041263, 484.0347886998693, 254050.22220176322, 36.59955502575704, 1015.9983088959659, 1030.2471073028807, 84.68370800099532, 1.7759965222342873E9, 0.0, 2026-04-12 20:22:02.242
0.0, 0.0, -7.369168961698623, -10.504657862836808, 6.372996160115875, 36.47328290533634, 96.26083035312708, 158.63381118940316, 164.29836214127562, 171.3631215404552, 154.7353424662857, 83.05599188581236, 67.27998342659866, -33.67646398263466, 77.08085002397209, 22.231878990597124, 152.5802502025212, 0.8632219267003074, 0.9069509984832221, 0.9184984718949484, 0.9620804121795724, 0.8203901893748028, 0.9117990470028955, 0.9761102477429972, 542.1347828540994, 234564.80104421615, 36.591598608056394, 1011.7405596436888, 942.9464449848775, 89.74432369238046, 1.7759965222385628E9, 0.0, 2026-04-12 20:22:02.242
0.0, 0.0, -4.7296140051421744, -10.487313313753774, -13.128830316119306, -13.251462537496344, 35.35261540545562, 80.15689108892363, 137.04677025992788, 189.876788087156, 181.50310398358914, 305.0220340498731, 186.69390766907517, 193.3129644417445, 118.54725451400839, 9.011302414528188, 105.80062982297142, 0.8501237259584435, 0.9271608774965313, 0.821699623874863, 0.8960202553148346, 0.9423944000023511, 0.9258230805775124, 0.907389466717311, 500.36298617715767, 272073.807392036, 36.59061360554524, 971.1932048719976, 1046.5169977154608, 97.43934911082711, 1.7759965222424288E9, 0.0, 2026-04-12 20:22:02.242
0.0, 0.0, 1.1909918513446556, -6.959759840235179, -8.99235848212821, -24.141934929053534, -20.355890709882857, -3.204508689931785, 31.18261353809615, 65.93537478749761, 118.72819506496919, 199.70381787108403, 179.63897928096966, 355.14619129921687, 319.7500302535642, 397.2535817393875, 275.16740651319583, 0.8034357587686619, 0.9989463731864553, 0.8667411552441089, 0.8011937176801476, 0.853752752489166, 0.9641887163443065, 1.068393239426516, 482.01812704065594, 246100.76668765355, 36.60330804222316, 923.2829799717839, 1021.8729070955885, 95.75775201936297, 1.7759965222457957E9, 0.0, 2026-04-12 20:22:02.276
0.0, 0.0, 8.239291176975279, 0.8222098847953134, -1.5192766556160393, -8.685795011109647, -41.97110851626016, -36.35919843046467, -7.566648084556206, -47.92196843906899, 16.500875860812528, 14.587050113756376, -44.828303759443145, 80.16294376523055, 111.82712726668565, 144.3374864730987, 190.6759321560444, 0.8272718470500993, 0.9616214015349983, 0.9087708720341193, 0.83344026895556, 0.901346715340927, 0.8991785921014459, 1.0805804134374375, 458.30608980169694, 241258.7708019321, 36.599894554223944, 906.7305695417479, 999.1568126680979, 84.88276424706248, 1.775996522250841E9, 0.0, 2026-04-12 20:22:02.276
0.0, 0.0, 14.679107029180294, 18.468744895040473, 18.763832267174802, 26.300271424802308, 17.68166224155464, 20.32395349726987, 6.473160132810719, -0.25534992530010925, -50.88428812134222, 38.013246771399224, -60.672639928954965, -65.3283443646001, -98.89991441172074, -54.37814574120992, -209.7389228657213, 0.8973644311438519, 0.8470105366276343, 0.8435577938045703, 0.9986879145384658, 0.9634094793231981, 0.9079214866946986, 0.9695981828336233, 454.38542298080057, 278558.3615930398, 36.604241621315154, 1005.1386945380718, 1087.5458513288852, 94.90118850708399, 1.7759965222548406E9, 0.0, 2026-04-12 20:22:02.276
0.0, 0.0, 21.381248844084777, 33.99743771421474, 49.40893572381016, 64.56932569607652, 83.12004553711833, 95.6277377471485, 125.827261788085, 118.0586589270344, 293.2463385069477, 214.28836711460136, 255.65114252744328, 274.58622409515885, 334.75850479448417, 253.97152704811526, 803.4361483101942, 0.9121761153346525, 0.9075438230438205, 0.9585249114950712, 0.823615467214066, 0.9646179286541833, 0.8476344816584244, 0.9389838351256254, 502.3161798634361, 264077.77202065167, 36.591746664161576, 976.5690691660405, 915.7278054562961, 93.4883888136513, 1.7759965222590165E9, 0.0, 2026-04-12 20:22:02.276
0.0, 0.0, 27.64989197555967, 49.68496151733102, 72.17251277487969, 107.24114543775082, 116.11835681989207, 153.0346778244546, 205.19399605511023, 245.82246868638885, 528.0784352105698, 302.02997271467666, 328.1593740012489, 248.56489063806444, 329.0775786196234, 312.04231934841096, 453.5820039837214, 0.9905316569900401, 0.8013791906316448, 0.8628054871474635, 0.9645360528702697, 0.8408500667316714, 0.9982458752978124, 1.0802995450637696, 482.1318613658233, 239575.82573864, 36.60865100693504, 927.1018732559162, 1052.2347084104604, 93.33422873349949, 1.7759965222629583E9, 0.0, 2026-04-12 20:22:02.276
0.0, 0.0, 34.817082334651694, 59.01298904982817, 90.23160954518913, 106.44104782108047, 154.93064436256384, 152.70310283583933, 140.9362517817021, 171.9849077039118, 244.05597452881375, 91.33330005097389, 50.467801875238436, -0.2213553486818114, 3.6653554282603125, 47.44657999568504, -225.91606984040163, 0.9078107440538011, 0.8093078582827523, 0.9604728070437466, 0.816820612281395, 0.9149081675474845, 0.9686905799688043, 1.0659695281964843, 495.1290766758488, 249163.7829937873, 36.59700174243771, 1091.4916402880228, 1096.9600293316937, 80.13599231783488, 1.7759965222669456E9, 0.0, 2026-04-12 20:22:02.276
0.0, 0.0, 38.71945584060689, 70.61047223983581, 87.2885127449519, 112.08342163428654, 123.26220270397998, 95.06738177706227, 59.62794180216408, -17.72692451157846, -84.03308255262161, -125.78383441906345, -67.66492122846762, 18.538475147131265, 146.6386871728332, 163.4524063303782, 249.47738778618003, 0.9008460586077224, 0.9772867738306988, 0.8273217067231621, 0.9088332981515107, 0.8700531411655805, 0.9538016609473673, 1.0863295924132959, 520.7136229571466, 233302.4232256607, 36.60989371990179, 959.2687732198102, 1085.4466549815033, 81.56188684691234, 1.7759965222710586E9, 0.0, 2026-04-12 20:22:02.276
0.0, 0.0, 42.53700610992526, 77.19915827633338, 95.29794198431148, 80.73064526565426, 47.646119448915655, 19.59176505915694, -14.044464119114167, -83.42866393864907, 46.974450023111324, 136.78192778897244, 148.38812903168616, 647.0452484073572, 509.5733093988457, 416.47763242981443, 188.14591141996283, 0.8478660499399259, 0.883336124523251, 0.8736127597211844, 0.9717395579418416, 0.8915218230434693, 0.900016891429314, 0.9406517547956605, 533.8607478681756, 265586.02429439186, 36.600770633585505, 1080.8371787324486, 922.9678973972555, 83.65578735215082, 1.7759965222743936E9, 0.0, 2026-04-12 20:22:02.276
0.0, 0.0, 45.47129903285095, 65.12556421566205, 62.76359063895589, 34.96938996939649, -14.66800375415552, -49.05905377646184, -45.966147863261824, 50.76327578203465, 153.44624264867966, 553.285591066406, 270.6970431280342, 197.67185347560263, 295.05985900191746, 49.100107438152264, 9.066140649273507, 0.8457173340110566, 0.84135963345761, 0.9462071235516257, 0.9502797528440307, 0.8650987874597903, 0.9031003270701804, 0.9495488426712905, 465.2497185951757, 228354.67044586918, 36.60558564531503, 933.83349934735, 985.7152751558255, 80.65380306576414, 1.7759965222781925E9, 0.0, 2026-04-12 20:22:02.308
0.0, 0.0, 46.69269333561109, 63.41459163784265, 38.78226710282798, -12.417945856582257, -15.137934966959264, -12.84388823801406, 186.70545008957274, 192.81855493647072, 247.39424520367606, 449.56431428494136, 95.11877677808681, -61.64852133242843, -105.45796055382044, -28.40233207631593, 195.7564661877384, 0.9232684624780362, 0.822298154610267, 0.8834096374458092, 0.9244861252536721, 0.827016614248025, 0.9117269239815599, 0.9658620602959811, 509.46917540822534, 243591.94663697723, 36.605361596184686, 1033.6565826544622, 938.226025901227, 85.77890648617247, 1.7759965222827916E9, 0.0, 2026-04-12 20:22:02.308
0.0, 0.0, 48.60649401586312, 48.44909402986836, 9.775355848055526, -3.3112205858292896, 0.6121957517820178, 89.07351743233464, 373.31830101620415, 167.028453816048, 117.07001331186682, 39.150986552025415, -114.61407048634868, 89.80623109643659, 174.3736552909055, 292.9806244777551, 421.81842801957384, 0.923785838552882, 0.8355944207842778, 0.8841657131832839, 0.9154350321281847, 0.8961826059909831, 0.8457313946688233, 0.9823607425082692, 533.741722366971, 269374.0477592822, 36.598673287682736, 995.2285682244305, 999.0673437552437, 91.47307005861381, 1.7759965222867908E9, 0.0, 2026-04-12 20:22:02.308
0.0, 0.0, 44.48855707644066, 31.077596177400835, -3.8386856223414725, -4.910181700259159, 59.917931848189504, 128.87625833896772, 159.71935624770066, 86.94149459418747, -69.66853483927042, -10.713735825560306, 124.10969968833132, 245.87165807518932, 381.0371664484844, 140.9473977533591, -113.96519530741341, 0.9731190607424741, 0.9847196699008703, 0.9107609703510832, 0.8788963035016094, 0.9600659649613376, 0.8305779539002837, 1.0193211412960423, 521.7574425228293, 240110.93940306484, 36.60992609002414, 1007.1538624029959, 999.3478890106899, 81.57037191195668, 1.7759965222908103E9, 0.0, 2026-04-12 20:22:02.308
0.0, 0.0, 41.95926933039972, 17.1901711540965, -24.79358623373949, 20.659336967990246, 107.4586950513203, 134.83175664905087, 83.76780642019153, -73.24827282337452, -44.32075352925, 182.12171408900775, 366.6442648605564, 157.39113239659835, -73.40903247018579, 92.74790717289456, 158.92582514215104, 0.8727618923725889, 0.9496709341004094, 0.9758187419451415, 0.9737999216561454, 0.8468965489717689, 0.8606132882448645, 0.9841207172213856, 526.8656869495652, 261421.8829288493, 36.601177870379, 992.1197310511026, 1075.517865609885, 82.59650812845311, 1.775996522294378E9, 0.0, 2026-04-12 20:22:02.308
0.0, 0.0, 36.91806730125213, -2.1113376621553, -20.410550980170242, 63.4894556695099, 157.15906493428366, 106.98477852034802, -10.14359492562214, 27.336489285706975, 147.58081323705414, 181.34118490882918, 237.00718087604588, -98.52662648892158, -26.48120888877125, 549.1789395226967, 516.0259625601594, 0.8176970204741676, 0.8477444791955765, 0.8382929636704995, 0.91563269297738, 0.9522499696305825, 0.8235178333086154, 0.9404835094179239, 515.0872339798015, 246467.74131838602, 36.60618169747418, 1041.3587625361688, 982.0870526094678, 90.72606918502964, 1.7759965222977057E9, 0.0, 2026-04-12 20:22:02.308
0.0, 0.0, 28.98519123033367, -9.719004751738808, 1.8125000018635475, 113.3728332058943, 114.61241026461542, 11.154941643541015, -0.7631278901796037, 139.58784679608925, 187.5976422237594, 110.58960992018376, -35.055095728157625, 82.60465152975503, 311.8611865706455, 510.69282798396694, 28.46382881656686, 0.9038124324168543, 0.866133146129027, 0.8487929270463519, 0.9155989875595351, 0.8381251617421944, 0.8332995042985908, 0.9293255549299909, 525.607644267214, 256316.2836228576, 36.606784348042545, 903.1605184274802, 912.6803043942753, 83.04341824399427, 1.7759965223024845E9, 0.0, 2026-04-12 20:22:02.308
0.0, 0.0, 22.254861457358835, -10.772815923323627, 35.10092205402945, 110.01160758884588, 69.8209658921698, -28.19175827093582, 59.13342370883787, 409.9574904897396, 122.78456503790174, -91.16750298481895, 151.86035182890976, 388.00259104855525, 157.9518132677061, -44.759121366174895, 140.28975119347047, 0.8429793757111984, 0.8334313288070025, 0.9026451819325941, 0.9372140229366271, 0.9451662750021165, 0.845613428531355, 0.9868104722871953, 521.389849582168, 233125.81823901882, 36.60059791851612, 947.3114749442628, 1048.2473899470588, 82.72924526545617, 1.775996522305868E9, 0.0, 2026-04-12 20:22:02.308
0.0, 0.0, 15.525313774284907, -4.91077526539538, 59.97514114485603, 114.40787553949373, 18.55156350059479, -27.55490525839045, 163.87082765392185, 299.0100707729313, -57.528508116543605, 21.65188343647725, 215.84842294117112, 159.9936019684601, 76.09813232745708, 156.3228636241265, 417.92756967903904, 0.9170091965147183, 0.8901122967675367, 0.9956993547604241, 0.9399619587390368, 0.9293458254623265, 0.8598106280952176, 0.9615285942810263, 497.4246519310487, 236419.72140324503, 36.6023245224824, 1066.7707742923476, 1090.0671709429685, 85.71850225384254, 1.775996522310893E9, 0.0, 2026-04-12 20:22:02.342
0.0, 0.0, 7.713824610937737, 0.21010429345960446, 90.325785866079, 83.4202957307958, -46.40755722615994, 74.82957010067177, 145.6320727477506, 37.74755181347328, 4.936032037712536, 268.04081595086745, 147.01119368473493, -151.76846317803364, 175.26217672617352, 308.4412437268768, 13.152654454577117, 0.9073018713726818, 0.8476402336334017, 0.9598301201883249, 0.8982115432080139, 0.954904130048904, 0.8471242944580877, 1.0011328566157431, 512.8149706157317, 273586.0031764347, 36.598675529562854, 1011.3964093173063, 1025.804640765313, 81.65672582128308, 1.7759965223148868E9, 0.0, 2026-04-12 20:22:02.342
0.0, 0.0, 1.0141169173371445, 9.324305523335887, 105.3782683693334, 36.316660204556634, -12.07708998178181, 123.21537674755437, 103.97724025557396, -45.55315252910509, 159.22995794007588, 216.70824342895827, -129.30937030758545, 124.22060939855834, 348.26309169236265, 79.61154922819439, 138.25924502930366, 0.9181156748430489, 0.9542593181114761, 0.8187947073580993, 0.9165221055917575, 0.8686851492228308, 0.8082271049654804, 0.991850608627727, 480.37437468470733, 237844.53867923893, 36.602989331517115, 980.7039741635282, 953.5919825152499, 88.73598984425541, 1.7759965223193088E9, 0.0, 2026-04-12 20:22:02.342
0.0, 0.0, -4.919477795946225, 23.67265736444217, 94.36467761500579, -5.817164610033693, 37.14997826505761, 182.22249397584505, -10.146704077089638, 34.78288842467488, 183.40118192909688, 4.043681358778883, 76.69330171799962, 432.5980652068963, 27.614839615404847, 25.293534651927942, 795.9749347225099, 0.9456412373164643, 0.9457315293281475, 0.8525897803545958, 0.9298262390320028, 0.8572456851362046, 0.8151903454442289, 1.067699209922322, 493.02752103132076, 257578.43702810915, 36.60526468030316, 928.9851886873355, 968.8202580204288, 94.81023791492419, 1.775996522323245E9, 0.0, 2026-04-12 20:22:02.342
0.0, 0.0, -8.429906199508405, 38.791614356430195, 80.91009965124118, -9.932300929677154, 91.26103153461386, 107.71118723287127, -36.86632747460948, 146.6796296190081, 129.36456699478953, -89.04050490052538, 299.3416587168159, 109.51102979211429, -83.19543139662014, 297.5527884263491, 156.8355420854756, 0.9877366364986376, 0.997516285809049, 0.8814958175843558, 0.9420735968035466, 0.8337879631106725, 0.834001076861003, 0.9497307578282156, 513.1655086937681, 271530.7566124782, 36.60282334274787, 1023.77080278183, 943.950770245046, 99.71814403076885, 1.7759965223272717E9, 0.0, 2026-04-12 20:22:02.342
0.0, 0.0, -6.880261563962563, 54.514143191601775, 50.94825193113562, -22.42353007555245, 120.84222261434707, 43.19964101677359, 38.927848078038146, 258.66854360760215, -64.5500975968248, 141.00319897380723, 165.54449515215234, 64.8571365168885, 290.18260613673675, 141.45118530017567, 111.4655681977511, 0.9428037645324584, 0.9498718682384136, 0.9778419249241704, 0.8562671216330949, 0.8886216667844622, 0.9965551124268791, 1.0207636519926688, 480.1757921080665, 237994.7862031891, 36.59437432119391, 916.5400183514383, 1042.7848641404858, 94.61628670202532, 1.775996522330842E9, 0.0, 2026-04-12 20:22:02.342
0.0, 0.0, -8.866759731961828, 64.05708924409595, 27.679179509068714, 23.80265881845761, 132.5849373424731, -57.13521575582419, 152.81075449824743, 97.21684642152447, -43.88575751171115, 196.85964872527586, -2.446190701869895, 192.64196836616128, 236.16917968698215, -84.93941896933481, 534.3815723250352, 0.9435497533570528, 0.9182646657584105, 0.9222999700880968, 0.8865981651343686, 0.9615442114532186, 0.826284687743422, 0.9502767527814876, 500.2468712773125, 276115.5133878273, 36.60332303965985, 1060.7347359403102, 963.8362975907586, 90.19490840697753, 1.775996522334793E9, 0.0, 2026-04-12 20:22:02.342
0.0, 0.0, -4.911396340131333, 71.25893863228102, 6.636823209654764, 66.13104389390763, 83.23153725523994, -25.413270946989385, 235.83487416121798, -1.7844585742625867, 136.29768807925322, 139.01246286235033, -10.99938102140166, 280.167811720907, -126.08259284965106, 388.25208605872683, 124.89155906496171, 0.8724108923264983, 0.816226418982299, 0.8021841588502165, 0.8362724876465463, 0.999010190596254, 0.8936630764222224, 1.0654392070323593, 542.8259259088519, 250984.678457697, 36.5947327154727, 906.4588542451559, 956.0315324922014, 94.65338282273775, 1.7759965223388612E9, 0.0, 2026-04-12 20:22:02.342
0.0, 0.0, -1.497842496380592, 67.11830658797598, -12.691923627783616, 91.46759533922581, 23.482616621784437, 63.848438904342395, 155.4479176844913, 12.971678645432874, 236.45822207150843, -0.9260964800268994, 274.37357371868274, 163.79194612031296, 208.44227055703894, 341.3901404975052, -47.327252676739676, 0.8028598924160377, 0.9843511553042849, 0.915027205578591, 0.9327182986516817, 0.8124346765133953, 0.8025941980914414, 0.9708786738662872, 507.40151356481033, 270729.0777873496, 36.60212057263449, 1084.0912301895085, 1085.2071350787958, 86.2950608072232, 1.775996522342193E9, 0.0, 2026-04-12 20:22:02.342
0.0, 0.0, 1.2039304310850056, 66.82997901334443, -17.810028295701663, 106.9454372544291, -31.960531087780723, 133.4053721618374, 21.192263434404147, 111.90202494813191, 122.70490862333745, 63.98966511392839, 308.1396466996693, 22.168981403269612, 626.2754604079882, 27.428717230967422, 317.7103847711246, 0.955300405187209, 0.8718549687030114, 0.9067256492792427, 0.8527182450662724, 0.8306912691952303, 0.8189190125464977, 1.0640157249424478, 487.30695372948276, 256678.43886119226, 36.60081596030983, 1090.4386617223129, 1010.4940579777051, 94.7503912305894, 1.7759965223466759E9, 0.0, 2026-04-12 20:22:02.375
0.0, 0.0, 8.334166229451883, 52.64425533035231, -9.075441078014649, 114.0987040673902, -20.893620219099247, 167.99475114173367, -48.21880074918727, 191.7344032351981, -36.05591986759734, 220.76917556864305, -23.418917760992827, 425.44039506789215, 57.734255400638176, 155.13627133246723, 194.32286993392455, 0.8420811989846266, 0.9875466551550028, 0.8260833295710013, 0.8738354053597053, 0.8519571000410582, 0.9314969080563503, 1.031620379843081, 549.935290626035, 274776.55562251696, 36.60282303656185, 1067.5457116226328, 1031.283261686771, 83.52583651398658, 1.775996522350688E9, 0.0, 2026-04-12 20:22:02.375
0.0, 0.0, 14.136223687178045, 41.856146231649284, 18.97812939773877, 75.71782993777288, 21.695720224333456, 106.89339274616216, 14.208580702548574, 142.21444854428714, 14.259799508888833, 262.1276596571907, -42.25425131463987, 207.6655458318707, -73.50785906657205, 492.6336786081041, 66.69198514438266, 0.8510083647952414, 0.8209002945332214, 0.8924188295403095, 0.9376391410621255, 0.9738933216452471, 0.8185446759523861, 1.0779086527253388, 453.24156947817954, 237071.92123333685, 36.596392756479396, 990.8094087384931, 909.3009783869581, 91.88248044657662, 1.7759965223541589E9, 0.0, 2026-04-12 20:22:02.375
0.0, 0.0, 21.39488733014167, 26.179795648523942, 49.00233787175489, 36.76577390114244, 77.53385791086602, 81.8526183172508, 126.63209324513642, 21.015448894137435, 322.60876992365826, 60.34969251269457, 163.09921484921182, 73.93664307439667, 334.76178856274606, 2.5160587345352496, 419.4705483160857, 0.8744833616601356, 0.9926815405421613, 0.8352037171486596, 0.8192836260737218, 0.9949708952868789, 0.9362002062384714, 0.9689571786188543, 462.0067446867892, 271110.00630326744, 36.608366605307765, 1097.7354076839968, 1094.3588490045022, 95.11867999615437, 1.7759965223588889E9, 0.0, 2026-04-12 20:22:02.375
0.0, 0.0, 27.738977162131263, 13.42175479798981, 75.92375429492408, 6.217377769091357, 149.75546470500387, -71.5948648947296, 147.46973641837468, -93.17548856997487, 519.7667353730983, -21.03933965053588, 345.0425502177304, -78.28238204767896, 358.04890364555183, 123.76551744527995, 181.37996408185535, 0.9968503280279343, 0.8181475184847617, 0.8493007084939221, 0.8176798224742139, 0.9626205392928865, 0.8208825478832499, 0.9046617074114511, 533.5858310763294, 270581.0211145892, 36.59051276854446, 951.1239360831303, 1040.5945892738025, 94.91859633921538, 1.7759965223629346E9, 0.0, 2026-04-12 20:22:02.375
0.0, 0.0, 34.35935410226739, 0.6491719340708073, 84.24295046197972, -9.235324723818401, 143.75439998903033, -23.41010631608765, 182.78421616853115, 33.06890450511259, 254.50601001242657, 276.5907515376226, 21.206590343851346, 236.37073891904902, 84.42675079341416, 809.8144673039417, 93.01542353640782, 0.8455598067904331, 0.9595929032926324, 0.8075529552230721, 0.9898411728897619, 0.8486871026157663, 0.9119492526530618, 1.0150526477565327, 501.4077455559548, 233069.59112410422, 36.595965948936076, 1067.531081512505, 1040.5665723223478, 85.00846710358813, 1.7759965223670063E9, 0.0, 2026-04-12 20:22:02.375
0.0, 0.0, 41.3829914250898, -14.849108231703156, 96.46567221210067, -9.593907913433249, 103.06135090997606, 55.376305879277325, 62.82351736318126, 198.57335030506096, -68.95055916131483, 553.890984315128, -86.21666725485568, 226.30481312565365, 74.6676057767705, 277.48851084263663, 286.03603132182815, 0.84505724943505, 0.8013243108440592, 0.9318495708993993, 0.9461065287193952, 0.8393905287073647, 0.9121321041641085, 1.0371143293665526, 461.3471435503482, 241075.12408320486, 36.59240971787638, 1037.4438527087432, 930.8201036509739, 92.62056054318778, 1.7759965223710177E9, 0.0, 2026-04-12 20:22:02.375
0.0, 0.0, 43.86906417149244, -10.768617176950386, 84.05949265911893, 23.13545559588845, 47.67119279120222, 123.33280818547145, -12.882835513614864, 266.9856153720617, 47.76115210412822, 143.16364038287207, 163.31044192584727, -43.802577391276714, 339.7548908890491, 0.826680988546741, 317.84002958745407, 0.8831342643329594, 0.9616120583688262, 0.971958409265068, 0.8236226382894538, 0.9757004329598772, 0.9522316501033218, 0.9645202797330802, 461.93820502119837, 256507.83224842508, 36.59432587734083, 933.143213627788, 1046.7779012015442, 89.91189692100025, 1.775996522375046E9, 0.0, 2026-04-12 20:22:02.375
0.0, 0.0, 45.52159889490076, -5.949850664029334, 62.03239394461002, 65.98352750247602, -17.54916862621097, 172.25835692929223, -2.8186620901519888, 108.15221559798535, 131.51771465920143, -27.45456098424151, 585.8912668100817, -24.20743126655944, 133.88535995097953, 230.46299482179518, -202.71613147206494, 0.8889214401762049, 0.893956552134371, 0.9984128057414664, 0.8398522446018617, 0.9717504534123834, 0.8544414615975057, 0.9022510043073879, 464.9503181841839, 272694.93168653385, 36.60595013106158, 1022.2194416793759, 934.3172610661018, 98.52775817424182, 1.7759965223790808E9, 0.0, 2026-04-12 20:22:02.411
0.0, 0.0, 46.00692635305751, -3.4247366227090765, 38.552649243996854, 112.06664608707786, -8.80786316218115, 149.4077708013756, 87.20670823971135, -3.6422497396494578, 172.26189676424525, 28.683067140360492, 187.1550264180854, 357.2323193887082, -136.320351829321, 197.2835792135428, 493.8615180871952, 0.8369857200702643, 0.9514219021226135, 0.8136379565799164, 0.940100042136735, 0.803721366151378, 0.9763844767262414, 1.0487770805167105, 456.5732778549207, 245280.89203044077, 36.60253146523629, 995.5995910344421, 1020.1028740663736, 94.62418424764523, 1.7759965223830607E9, 0.0, 2026-04-12 20:22:02.411
0.0, 0.0, 47.956877120228924, 15.130003153992991, 6.940913028492972, 124.17848876391903, -12.983008145231338, 57.33425870495388, 219.01404185032644, -9.360003520974203, 131.39610947579885, 189.3806558309522, -119.11372079206765, 209.01134003662975, 204.53558903681736, 43.180480716170194, 659.3384859459613, 0.818240046241071, 0.9040668200650123, 0.886263944780498, 0.937700256293834, 0.9657450086100748, 0.9513635726763902, 1.0511253179993834, 466.0530197069715, 229968.95208842575, 36.59665932817358, 1042.5399635734034, 1041.1527994290964, 99.75478178458893, 1.7759965223870587E9, 0.0, 2026-04-12 20:22:02.411
0.0, 0.0, 46.186705313800786, 28.927751770167784, -4.703291484225687, 99.56445352138593, 59.858382955254164, 13.634373698816155, 186.1267750611996, 91.75407591558553, -5.105086943024844, 262.7649868669986, 130.92195369562205, -39.972710050505356, 381.1001095515818, 171.0175624249721, -135.20767641731203, 0.9347251903111152, 0.8832164614619115, 0.9994300983659238, 0.846294626272454, 0.9772263907314004, 0.902224041183549, 0.9508110501235476, 533.5650986917482, 269997.5118319221, 36.597836748310044, 1082.5247142158023, 978.1557693168153, 98.6046316110185, 1.775996522391111E9, 0.0, 2026-04-12 20:22:02.411
0.0, 0.0, 39.39659354552201, 42.820544720284865, -7.4246937451213455, 82.29827268503209, 101.5596624814529, -53.73874842027794, 83.9982932217111, 158.50350582720583, -7.600943743121903, 83.64769435884563, 298.6429138310891, 84.23121225225411, 44.13755950535641, 454.7955572442526, 159.25961284764813, 0.8868095818193616, 0.9357425463426089, 0.8300663868236926, 0.9292059237880207, 0.9633758951989121, 0.9084352141061264, 0.9772601535231107, 529.8775911761273, 228633.8929140468, 36.6011946713904, 952.6295164741522, 907.9757120197326, 85.85808661932062, 1.7759965223943765E9, 0.0, 2026-04-12 20:22:02.411
0.0, 0.0, 36.0351810887706, 59.66936534068057, -4.590682358052945, 36.76497920293456, 130.3581264427537, 44.32490465555, -9.227217688567663, 148.35831114616084, 134.25148753471046, -11.340415914773402, 126.0047902679874, 365.62132619947164, 90.69153887561873, -24.528821644177214, 370.4014446868319, 0.997162788339273, 0.9670906260195397, 0.880649769564289, 0.9631418641672581, 0.9753626843774373, 0.867173120904117, 1.0491440161095802, 544.6166312362848, 251007.40546305262, 36.597936502772455, 914.3015597404038, 945.9792514234169, 87.07306496957592, 1.7759965223981457E9, 0.0, 2026-04-12 20:22:02.411
0.0, 0.0, 29.15324601856887, 68.34916840827691, 11.668402958461897, 5.772216154911206, 127.8070650668694, 111.52326295293585, -75.12773243105178, 61.55505960476384, 201.05614823692184, 109.4988541068409, -26.648268972068024, 201.81177316473298, 403.5083685353111, -35.23181286528643, -37.97436738396692, 0.9945442524129148, 0.954813267125895, 0.9477185984119482, 0.9794838945103238, 0.8160280144301749, 0.8207320470298325, 0.9831862228810839, 470.8145121453984, 238676.99999252503, 36.6020186743363, 904.3396918211431, 1083.859357172432, 98.83919051941903, 1.7759965224032528E9, 0.0, 2026-04-12 20:22:02.411
0.0, 0.0, 22.19608386923332, 70.94690167227765, 33.96466626479006, -17.560068183541105, 72.59113752575078, 156.40788569081712, 138.85556747773362, -46.56833055550766, 114.27027536068226, 227.0387424103622, 82.53637175199356, -146.5493260570605, 364.50373866299736, 354.31337083322865, 110.1887071438785, 0.911040890798651, 0.9549508858161825, 0.9408453124172301, 0.8016810752404488, 0.8038951827418805, 0.8614910401325506, 0.9454150953758025, 493.8004685719848, 269958.5405012568, 36.59945412716844, 951.1874698931775, 1067.5325211357192, 81.0980747439077, 1.7759965224072113E9, 0.0, 2026-04-12 20:22:02.411
0.0, 0.0, 14.950412241369436, 74.77621978568797, 61.4691813749873, -4.1658116822724125, -1.6397319405788977, 120.73085270596764, 369.0480249255278, -2.3813422537604936, 29.50085525792383, 144.03296059561393, 339.5250518247137, 109.20549159782922, -93.74047504033445, 123.88791767339598, 350.63397376483636, 0.9271282997860156, 0.9525838534844159, 0.9499015760622841, 0.8354382678532877, 0.9679186302465995, 0.8248738554052456, 1.028133862473287, 491.2537797717193, 274578.1318711597, 36.60167403854081, 1077.2978118346805, 1066.9526631338283, 89.33784413331256, 1.775996522411219E9, 0.0, 2026-04-12 20:22:02.447
0.0, 0.0, 8.606594888273321, 58.79995885476835, 76.17298173908438, 15.633826279962463, -6.135119053401425, 63.87051016785725, 162.1328078521633, 278.0249729966834, 46.82173112195572, -54.99900153938961, 177.33484424972232, 202.4738531259963, 345.59441369360866, -180.75676429197023, -29.910758935670685, 0.9769005582180609, 0.8168003091282566, 0.9536387393211233, 0.8379884549255887, 0.9335035930297947, 0.9785332239234218, 1.0741352944285485, 477.8566446801644, 272763.92540576577, 36.60261907255598, 1081.6897875501938, 971.0865701605237, 95.20185120868749, 1.7759965224153514E9, 0.0, 2026-04-12 20:22:02.447
0.0, 0.0, 1.7776531380875404, 50.46782823112851, 88.81970371239308, 61.19180476769169, -1.5713387947570325, 15.928480103362432, 114.87965118655666, 425.61075008816323, 169.7422161272557, 50.98599812867639, 17.740794194589753, 262.3341614880059, 328.05386621028765, 327.05506239436545, 110.66968593025332, 0.8380777114948318, 0.9719242667260725, 0.8451955888946697, 0.9566166625386511, 0.8092363533061512, 0.9018134950341904, 1.0544071032304998, 459.6960771690661, 252220.4347169047, 36.59525610953853, 1080.4739544421957, 1050.7827076827393, 92.82190287328237, 1.7759965224193292E9, 0.0, 2026-04-12 20:22:02.447
0.0, 0.0, -3.632201965844871, 37.25654130757983, 101.93130425103263, 99.37095441711149, 42.70478112990368, 3.2143380526506746, -3.1487472279071085, 279.710694725396, 193.15878426718479, 187.09741474758005, 87.22347120208815, -210.37115377578317, 82.57036334756972, 321.5727881394163, 533.4801535310423, 0.8797958478424932, 0.8686911574713194, 0.9550503288619215, 0.8164267898969915, 0.8498143880243962, 0.9959738502093264, 1.0052035123387897, 536.2545305241246, 260478.1200250944, 36.593328028302885, 974.9076069135566, 1087.055177169582, 95.6133169787036, 1.775996522423343E9, 0.0, 2026-04-12 20:22:02.447
0.0, 0.0, -5.572421996024001, 20.883188923082642, 76.14848374582056, 135.3305336492072, 95.1307163896256, 15.160803865892284, -51.66907590199128, -6.819606412370561, 124.61077074886484, 204.6106822357038, 323.2773939528114, 264.6539429660363, -52.57696344909422, -226.53469085883285, 80.69636674990338, 0.9713083280280931, 0.9664397160734147, 0.8749957802989795, 0.9336806289589746, 0.8497852416977858, 0.9474050837319957, 1.050181111286063, 538.6168497243943, 268495.2219369784, 36.59348287883865, 1013.4717786517426, 957.2698441803449, 99.71941113341603, 1.775996522426852E9, 0.0, 2026-04-12 20:22:02.447
0.0, 0.0, -5.9529176668725725, 7.693681714019778, 50.669080107454995, 111.91908247348042, 140.17240559410192, 106.79493901372157, 40.964203702168525, -12.527300529297051, -70.4095590861715, 63.27978423933652, 171.3475392806808, 309.85347368103953, 296.892002801235, 319.9023555156501, 16.982001892633775, 0.9909170289046062, 0.9414438635243308, 0.876897291727567, 0.9761354812437505, 0.9075051067085548, 0.8209003982853675, 1.02012176973016, 527.8826857482122, 258825.6332909814, 36.59526414056313, 1080.1270913122758, 932.9314208758861, 89.7068663515476, 1.7759965224308546E9, 0.0, 2026-04-12 20:22:02.447
0.0, 0.0, -6.307544852739319, -1.2812461778147863, 22.00758501638118, 86.37110687345336, 114.42626596249158, 160.19783483028283, 142.44426332313927, 78.28399959409337, 15.316025052803582, -84.3991263804763, 13.971622276260348, 72.65042681255039, 232.9685703290167, 630.0086875895043, 340.2114830445784, 0.8243250116788478, 0.9705272790357476, 0.9384226062690736, 0.8245080801828925, 0.8310380818382531, 0.8026122537986938, 1.0365651639925741, 491.8820132590278, 233043.97615254097, 36.59451720485093, 1083.7319414055394, 1040.9288615511293, 91.52395864550252, 1.7759965224348736E9, 0.0, 2026-04-12 20:22:02.447
0.0, 0.0, -6.869402581583504, -10.269638698277141, -4.228055532156759, 37.85926141008348, 91.63975551517389, 150.2102263364545, 185.46364402190716, 150.49753493976056, 133.66385619206218, 96.46504473417514, 32.00387305423227, -52.830435048436925, -179.77505906343686, 86.39533172645045, 293.6578917540693, 0.8639608280330607, 0.9251923133956906, 0.8583786187741211, 0.9217078638809194, 0.8470969052189329, 0.8804133456779055, 0.9189898012931224, 540.9049164488874, 266964.7146357003, 36.60520336733008, 927.140680486639, 1042.646750912042, 91.94621579112653, 1.7759965224383945E9, 0.0, 2026-04-12 20:22:02.447
